Focus Mode,Read Mode,Exposure Time (sec),Number of Frames,Start Y,End Y,Date,Time,Position (microns)
Single Acquisition,Spectrum,20.000000,3,105,125,2/11/2021,5:26:13 PM,0.000000,0.000000,200.010000,

1267.000,1266.000,1274.000
1264.000,1275.000,1285.000
1275.000,1268.000,1279.000
1267.000,1268.000,1279.000
1267.000,1275.000,1283.000
1268.000,1263.000,1277.000
1270.000,1273.000,1277.000
1265.000,1284.000,1282.000
1274.000,1271.000,1277.000
1276.000,1279.000,1275.000
1284.000,1273.000,1281.000
1282.000,1274.000,1281.000
1276.000,1278.000,1280.000
1276.000,1267.000,1275.000
1273.000,1282.000,1291.000
1273.000,1277.000,1289.000
1275.000,1275.000,1287.000
1283.000,1278.000,1288.000
1280.000,1280.000,1287.000
1281.000,1284.000,1285.000
1279.000,1288.000,1283.000
1284.000,1288.000,1294.000
1293.000,1287.000,1286.000
1285.000,1290.000,1294.000
1286.000,1286.000,1302.000
1289.000,1289.000,1297.000
1292.000,1288.000,1303.000
1295.000,1294.000,1297.000
1289.000,1296.000,1316.000
1293.000,1303.000,1300.000
1295.000,1300.000,1320.000
1316.000,1305.000,1317.000
1306.000,1313.000,1316.000
1302.000,1325.000,1331.000
1307.000,1307.000,1327.000
1306.000,1315.000,1339.000
1314.000,1331.000,1333.000
1323.000,1331.000,1334.000
1325.000,1328.000,1329.000
1327.000,1324.000,1349.000
1323.000,1336.000,1353.000
1328.000,1337.000,1368.000
1339.000,1350.000,1352.000
1335.000,1348.000,1363.000
1356.000,1358.000,1373.000
1349.000,1370.000,1377.000
1358.000,1359.000,1406.000
1376.000,1366.000,1394.000
1363.000,1395.000,1397.000
1374.000,1392.000,1419.000
1375.000,1388.000,1409.000
1391.000,1401.000,1433.000
1391.000,1401.000,1438.000
1399.000,1420.000,1457.000
1385.000,1430.000,1457.000
1408.000,1429.000,1473.000
1406.000,1440.000,1481.000
1410.000,1443.000,1479.000
1423.000,1451.000,1467.000
1435.000,1438.000,1473.000
1422.000,1441.000,1466.000
1435.000,1434.000,1455.000
1428.000,1435.000,1461.000
1433.000,1435.000,1449.000
1445.000,1437.000,1448.000
1458.000,1452.000,1458.000
1465.000,1457.000,1465.000
1458.000,1455.000,1478.000
1473.000,1474.000,1481.000
1484.000,1476.000,1514.000
1512.000,1515.000,1527.000
1523.000,1507.000,1541.000
1533.000,1539.000,1559.000
1544.000,1561.000,1554.000
1559.000,1576.000,1615.000
1601.000,1590.000,1627.000
1593.000,1622.000,1627.000
1618.000,1614.000,1644.000
1635.000,1627.000,1658.000
1618.000,1651.000,1680.000
1633.000,1657.000,1677.000
1671.000,1655.000,1713.000
1656.000,1666.000,1690.000
1658.000,1671.000,1723.000
1683.000,1670.000,1731.000
1689.000,1689.000,1729.000
1707.000,1706.000,1728.000
1716.000,1731.000,1734.000
1718.000,1728.000,1737.000
1746.000,1744.000,1760.000
1748.000,1765.000,1789.000
1756.000,1774.000,1819.000
1797.000,1784.000,1788.000
1806.000,1840.000,1833.000
1820.000,1838.000,1863.000
1838.000,1882.000,1886.000
1892.000,1941.000,1920.000
1984.000,1969.000,1975.000
2048.000,2006.000,2041.000
2111.000,2130.000,2144.000
2211.000,2210.000,2211.000
2269.000,2265.000,2314.000
2345.000,2341.000,2396.000
2434.000,2449.000,2470.000
2550.000,2512.000,2574.000
2578.000,2549.000,2641.000
2612.000,2569.000,2625.000
2611.000,2608.000,2627.000
2667.000,2637.000,2695.000
2678.000,2666.000,2698.000
2719.000,2653.000,2700.000
2733.000,2685.000,2664.000
2728.000,2653.000,2701.000
2689.000,2730.000,2720.000
2757.000,2753.000,2772.000
2810.000,2759.000,2802.000
2949.000,2927.000,2884.000
3100.000,3039.000,3042.000
3273.000,3246.000,3201.000
3581.000,3574.000,3550.000
4301.000,4131.000,4103.000
5642.000,5424.000,5056.000
8908.000,8576.000,7773.000
19797.000,18777.000,15843.000
61835.000,61811.000,62167.000
62235.000,62237.000,62165.000
62149.000,62151.000,62147.000
62080.000,62083.000,62083.000
62100.000,62094.000,62097.000
62088.000,62096.000,62096.000
62066.000,62068.000,62072.000
62064.000,62069.000,62067.000
62072.000,62072.000,62071.000
62065.000,62068.000,62059.000
62059.000,62053.000,62062.000
62061.000,62060.000,62063.000
62060.000,62056.000,62057.000
62052.000,62060.000,62052.000
62058.000,62057.000,62053.000
62060.000,62058.000,62056.000
62053.000,62048.000,62052.000
62052.000,62060.000,62056.000
62052.000,62056.000,62053.000
62050.000,62051.000,62049.000
62053.000,62053.000,62058.000
62052.000,62054.000,62049.000
62056.000,62053.000,62058.000
62054.000,62055.000,62050.000
62049.000,62055.000,62050.000
62054.000,62053.000,62053.000
62058.000,62053.000,62053.000
62051.000,62053.000,62053.000
62049.000,62053.000,62050.000
62050.000,62051.000,62051.000
62055.000,62054.000,62049.000
62050.000,62056.000,62052.000
62051.000,62053.000,62055.000
62052.000,62053.000,62051.000
62054.000,62052.000,62049.000
62055.000,62052.000,62048.000
62049.000,62052.000,62048.000
62049.000,62057.000,62052.000
62050.000,62046.000,62052.000
62050.000,62050.000,62054.000
62050.000,62050.000,62050.000
62051.000,62056.000,62052.000
62054.000,62053.000,62055.000
62052.000,62057.000,62049.000
62056.000,62056.000,62052.000
62051.000,62050.000,62052.000
62052.000,62054.000,62056.000
62054.000,62056.000,62053.000
62053.000,62053.000,62050.000
62059.000,62056.000,62054.000
62064.000,62058.000,62058.000
62078.000,62061.000,62060.000
65535.000,62084.000,62080.000
1667.000,63835.000,62067.000
1556.000,1673.000,1739.000
1545.000,1567.000,1573.000
1546.000,1521.000,1551.000
1506.000,1545.000,1521.000
1493.000,1516.000,1510.000
1484.000,1516.000,1505.000
1500.000,1482.000,1504.000
1480.000,1496.000,1486.000
1464.000,1467.000,1470.000
1451.000,1486.000,1463.000
1449.000,1457.000,1455.000
1449.000,1451.000,1453.000
1445.000,1449.000,1454.000
1449.000,1445.000,1438.000
1433.000,1423.000,1442.000
1419.000,1425.000,1431.000
1421.000,1436.000,1431.000
1415.000,1419.000,1423.000
1434.000,1428.000,1426.000
1404.000,1407.000,1410.000
1411.000,1407.000,1412.000
1403.000,1409.000,1402.000
1397.000,1394.000,1401.000
1404.000,1402.000,1409.000
1387.000,1393.000,1391.000
1395.000,1383.000,1404.000
1381.000,1392.000,1387.000
1374.000,1388.000,1392.000
1380.000,1391.000,1381.000
1383.000,1395.000,1382.000
1371.000,1382.000,1373.000
1373.000,1370.000,1366.000
1356.000,1356.000,1369.000
1375.000,1362.000,1383.000
1371.000,1368.000,1358.000
1370.000,1359.000,1371.000
1362.000,1362.000,1353.000
1359.000,1348.000,1362.000
1353.000,1350.000,1364.000
1351.000,1355.000,1356.000
1344.000,1350.000,1349.000
1345.000,1351.000,1357.000
1347.000,1349.000,1358.000
1346.000,1348.000,1352.000
1339.000,1338.000,1351.000
1347.000,1336.000,1339.000
1336.000,1332.000,1341.000
1339.000,1336.000,1344.000
1343.000,1331.000,1340.000
1327.000,1322.000,1322.000
1329.000,1338.000,1332.000
1335.000,1331.000,1341.000
1336.000,1333.000,1325.000
1322.000,1332.000,1320.000
1332.000,1336.000,1327.000
1330.000,1320.000,1313.000
1328.000,1319.000,1329.000
1323.000,1317.000,1314.000
1312.000,1318.000,1315.000
1318.000,1319.000,1321.000
1331.000,1312.000,1327.000
1328.000,1309.000,1320.000
1319.000,1311.000,1323.000
1310.000,1329.000,1317.000
1304.000,1307.000,1321.000
1313.000,1313.000,1316.000
1315.000,1312.000,1308.000
1307.000,1313.000,1317.000
1316.000,1307.000,1303.000
1307.000,1311.000,1317.000
1304.000,1311.000,1313.000
1309.000,1307.000,1306.000
1300.000,1297.000,1299.000
1303.000,1300.000,1310.000
1303.000,1314.000,1301.000
1299.000,1311.000,1313.000
1301.000,1304.000,1297.000
1309.000,1301.000,1316.000
1294.000,1303.000,1304.000
1313.000,1301.000,1297.000
1301.000,1309.000,1293.000
1295.000,1303.000,1304.000
1298.000,1294.000,1303.000
1302.000,1295.000,1297.000
1291.000,1291.000,1297.000
1298.000,1303.000,1300.000
1296.000,1299.000,1294.000
1290.000,1291.000,1290.000
1297.000,1301.000,1300.000
1298.000,1297.000,1302.000
1308.000,1291.000,1292.000
1297.000,1289.000,1287.000
1299.000,1307.000,1291.000
1290.000,1300.000,1292.000
1294.000,1297.000,1304.000
1294.000,1297.000,1311.000
1296.000,1292.000,1308.000
1302.000,1293.000,1302.000
1300.000,1294.000,1292.000
1302.000,1307.000,1298.000
1300.000,1302.000,1304.000
1303.000,1304.000,1309.000
1304.000,1301.000,1308.000
1306.000,1296.000,1324.000
1306.000,1314.000,1313.000
1314.000,1312.000,1324.000
1319.000,1314.000,1323.000
1319.000,1319.000,1330.000
1325.000,1329.000,1328.000
1328.000,1329.000,1327.000
1347.000,1340.000,1341.000
1352.000,1345.000,1343.000
1360.000,1353.000,1357.000
1369.000,1357.000,1375.000
1380.000,1378.000,1402.000
1396.000,1405.000,1404.000
1428.000,1419.000,1427.000
1447.000,1437.000,1438.000
1461.000,1457.000,1483.000
1496.000,1484.000,1490.000
1537.000,1506.000,1522.000
1572.000,1568.000,1560.000
1617.000,1615.000,1630.000
1688.000,1665.000,1660.000
1770.000,1727.000,1712.000
1853.000,1825.000,1818.000
1942.000,1894.000,1911.000
2043.000,2011.000,2036.000
2190.000,2140.000,2140.000
2312.000,2279.000,2297.000
2510.000,2459.000,2472.000
2762.000,2682.000,2693.000
2992.000,2954.000,2917.000
3290.000,3176.000,3198.000
3609.000,3577.000,3498.000
4073.000,3908.000,3882.000
4553.000,4340.000,4267.000
4957.000,4692.000,4749.000
5463.000,5298.000,5289.000
6044.000,5841.000,5732.000
6547.000,6419.000,6337.000
7193.000,6887.000,6787.000
7881.000,7526.000,7481.000
8404.000,8124.000,8042.000
8997.000,8579.000,8692.000
9568.000,9047.000,8992.000
9827.000,9584.000,9504.000
10367.000,9914.000,9759.000
10635.000,10206.000,10145.000
10950.000,10467.000,10581.000
11074.000,10639.000,10611.000
11326.000,10843.000,10780.000
11498.000,10985.000,10816.000
11525.000,10947.000,10848.000
11520.000,10963.000,10970.000
11535.000,11124.000,10990.000
11712.000,11091.000,11039.000
11648.000,11186.000,11003.000
11578.000,11037.000,10971.000
11599.000,11100.000,11003.000
11522.000,11192.000,10946.000
11558.000,11144.000,10980.000
11575.000,11026.000,10927.000
11469.000,11084.000,10954.000
11521.000,11130.000,10944.000
11663.000,11127.000,10946.000
11681.000,11038.000,11055.000
11598.000,11057.000,11098.000
11739.000,11219.000,11098.000
11601.000,11192.000,11045.000
11712.000,11163.000,11117.000
11686.000,11361.000,11018.000
11689.000,11240.000,11040.000
11553.000,11195.000,11043.000
11727.000,11166.000,11162.000
11739.000,11161.000,11193.000
11608.000,11341.000,11122.000
11878.000,11245.000,11135.000
11869.000,11240.000,11195.000
11872.000,11278.000,11080.000
11830.000,11359.000,11198.000
11728.000,11267.000,11097.000
11827.000,11347.000,11244.000
11773.000,11290.000,11117.000
11859.000,11368.000,11126.000
11838.000,11385.000,11253.000
11756.000,11304.000,11295.000
11851.000,11258.000,11233.000
11881.000,11412.000,11242.000
11785.000,11401.000,11208.000
11879.000,11245.000,11282.000
11818.000,11336.000,11170.000
11880.000,11292.000,11079.000
11814.000,11373.000,11293.000
12035.000,11396.000,11324.000
11939.000,11401.000,11378.000
11949.000,11379.000,11251.000
11924.000,11371.000,11352.000
12058.000,11494.000,11383.000
12040.000,11548.000,11395.000
12169.000,11664.000,11459.000
12094.000,11726.000,11588.000
12276.000,11661.000,11649.000
12249.000,11651.000,11560.000
12195.000,11670.000,11522.000
12327.000,11723.000,11604.000
12268.000,11717.000,11523.000
12311.000,11804.000,11636.000
12245.000,11779.000,11607.000
12404.000,11754.000,11712.000
12351.000,11761.000,11670.000
12208.000,11675.000,11664.000
12354.000,11916.000,11778.000
12371.000,11750.000,11731.000
12387.000,11866.000,11759.000
12509.000,11817.000,11742.000
12570.000,11818.000,11878.000
12516.000,11887.000,11767.000
12524.000,11986.000,11901.000
12527.000,12028.000,11747.000
12482.000,12054.000,11741.000
12616.000,12039.000,11823.000
12664.000,12021.000,11881.000
12599.000,11894.000,12003.000
12541.000,11936.000,11806.000
12562.000,11994.000,11756.000
12495.000,11860.000,11749.000
12609.000,11871.000,11698.000
12605.000,11941.000,11944.000
12516.000,11912.000,11787.000
12552.000,11925.000,11851.000
12694.000,11976.000,11883.000
12603.000,11936.000,11968.000
12529.000,12003.000,11811.000
12572.000,12095.000,11927.000
12703.000,12075.000,11916.000
12589.000,12058.000,11900.000
12623.000,12103.000,11976.000
12640.000,12065.000,11975.000
12603.000,12066.000,11869.000
12699.000,12077.000,11893.000
12672.000,12005.000,11893.000
12635.000,12255.000,11987.000
12740.000,12151.000,11961.000
12636.000,12079.000,11963.000
12788.000,12223.000,11967.000
12753.000,12175.000,11991.000
12848.000,12180.000,12072.000
12791.000,12238.000,12038.000
12827.000,12165.000,12173.000
12782.000,12256.000,11981.000
12915.000,12366.000,12234.000
12846.000,12277.000,12217.000
12911.000,12339.000,12261.000
12917.000,12335.000,12317.000
13040.000,12220.000,12186.000
12902.000,12377.000,12169.000
13027.000,12384.000,12254.000
12986.000,12402.000,12183.000
13136.000,12483.000,12324.000
12967.000,12459.000,12241.000
13122.000,12451.000,12244.000
13014.000,12379.000,12200.000
13066.000,12356.000,12256.000
12980.000,12500.000,12263.000
13036.000,12431.000,12286.000
13116.000,12513.000,12329.000
13058.000,12464.000,12191.000
13135.000,12529.000,12374.000
13124.000,12429.000,12187.000
13050.000,12553.000,12242.000
13066.000,12420.000,12443.000
13185.000,12491.000,12347.000
13126.000,12577.000,12374.000
13061.000,12585.000,12482.000
13236.000,12627.000,12427.000
13043.000,12571.000,12422.000
13204.000,12572.000,12386.000
12985.000,12583.000,12343.000
13244.000,12656.000,12463.000
13195.000,12636.000,12381.000
13086.000,12480.000,12475.000
13167.000,12467.000,12407.000
13293.000,12587.000,12536.000
13320.000,12480.000,12325.000
13180.000,12569.000,12334.000
13256.000,12557.000,12424.000
13153.000,12571.000,12449.000
13183.000,12696.000,12431.000
13236.000,12600.000,12397.000
13183.000,12723.000,12372.000
13152.000,12433.000,12453.000
13163.000,12795.000,12370.000
13259.000,12465.000,12336.000
13150.000,12505.000,12445.000
13329.000,12666.000,12422.000
13356.000,12682.000,12442.000
13296.000,12667.000,12376.000
13356.000,12647.000,12507.000
13328.000,12689.000,12649.000
13245.000,12677.000,12562.000
13314.000,12710.000,12563.000
13270.000,12605.000,12421.000
13239.000,12607.000,12445.000
13123.000,12666.000,12588.000
13273.000,12681.000,12519.000
13260.000,12750.000,12618.000
13383.000,12822.000,12523.000
13293.000,12656.000,12425.000
13476.000,12710.000,12540.000
13303.000,12738.000,12556.000
13359.000,12789.000,12622.000
13479.000,12942.000,12527.000
13412.000,12800.000,12447.000
13455.000,12776.000,12631.000
13420.000,12850.000,12675.000
13443.000,12808.000,12775.000
13501.000,12992.000,12673.000
13621.000,12821.000,12916.000
13532.000,12972.000,12689.000
13530.000,12924.000,12760.000
13600.000,13032.000,12698.000
13543.000,13058.000,12758.000
13473.000,12859.000,12744.000
13566.000,12934.000,12769.000
13510.000,13107.000,12755.000
13537.000,12948.000,12755.000
13542.000,12908.000,12735.000
13638.000,12961.000,12863.000
13580.000,12989.000,12715.000
13536.000,12935.000,12626.000
13525.000,12940.000,12846.000
13452.000,12968.000,12717.000
13465.000,12861.000,12661.000
13458.000,12816.000,12604.000
13442.000,12870.000,12574.000
13449.000,12801.000,12770.000
13342.000,12768.000,12580.000
13415.000,12744.000,12482.000
13288.000,12555.000,12563.000
13234.000,12596.000,12440.000
13187.000,12596.000,12367.000
13171.000,12567.000,12410.000
13141.000,12502.000,12416.000
13150.000,12494.000,12407.000
13162.000,12623.000,12405.000
13301.000,12493.000,12337.000
13072.000,12412.000,12408.000
13134.000,12521.000,12372.000
13147.000,12613.000,12443.000
13074.000,12470.000,12467.000
13138.000,12494.000,12411.000
13077.000,12492.000,12375.000
13189.000,12634.000,12340.000
13254.000,12503.000,12278.000
13081.000,12533.000,12258.000
13144.000,12466.000,12282.000
12991.000,12484.000,12359.000
13027.000,12481.000,12366.000
12956.000,12449.000,12279.000
13081.000,12418.000,12320.000
12971.000,12414.000,12304.000
13012.000,12438.000,12264.000
13026.000,12408.000,12218.000
12951.000,12311.000,12205.000
13003.000,12389.000,12269.000
13073.000,12276.000,12180.000
13049.000,12422.000,12207.000
13020.000,12440.000,12198.000
12995.000,12547.000,12239.000
13037.000,12457.000,12232.000
13024.000,12292.000,12185.000
13146.000,12367.000,12323.000
13093.000,12607.000,12220.000
13080.000,12485.000,12332.000
13235.000,12490.000,12335.000
13177.000,12552.000,12421.000
13147.000,12522.000,12396.000
13232.000,12574.000,12458.000
13252.000,12568.000,12354.000
13341.000,12708.000,12408.000
13125.000,12534.000,12365.000
13154.000,12532.000,12541.000
13312.000,12526.000,12359.000
13159.000,12625.000,12404.000
13359.000,12561.000,12389.000
13219.000,12629.000,12394.000
13263.000,12582.000,12495.000
13219.000,12589.000,12428.000
13283.000,12652.000,12449.000
13318.000,12717.000,12577.000
13315.000,12693.000,12467.000
13342.000,12729.000,12464.000
13313.000,12728.000,12447.000
13381.000,12540.000,12526.000
13304.000,12839.000,12465.000
13285.000,12628.000,12433.000
13284.000,12638.000,12496.000
13275.000,12614.000,12428.000
13290.000,12623.000,12477.000
13212.000,12590.000,12525.000
13183.000,12524.000,12421.000
13102.000,12604.000,12392.000
13294.000,12656.000,12478.000
13236.000,12614.000,12315.000
13296.000,12701.000,12536.000
13370.000,12759.000,12439.000
13482.000,12702.000,12552.000
13291.000,12879.000,12500.000
13293.000,12763.000,12509.000
13422.000,12759.000,12533.000
13366.000,12762.000,12683.000
13379.000,12638.000,12543.000
13296.000,12759.000,12541.000
13389.000,12750.000,12498.000
13291.000,12701.000,12412.000
13299.000,12735.000,12523.000
13339.000,12603.000,12469.000
13141.000,12611.000,12347.000
13191.000,12567.000,12478.000
13190.000,12553.000,12447.000
13117.000,12583.000,12338.000
13217.000,12580.000,12292.000
13070.000,12442.000,12400.000
13147.000,12601.000,12333.000
13132.000,12621.000,12318.000
13168.000,12500.000,12247.000
13184.000,12467.000,12254.000
13118.000,12497.000,12248.000
13199.000,12479.000,12275.000
13088.000,12548.000,12243.000
13157.000,12410.000,12265.000
12961.000,12394.000,12404.000
13034.000,12478.000,12232.000
12964.000,12320.000,12119.000
12891.000,12367.000,12185.000
12999.000,12397.000,12229.000
12980.000,12408.000,12232.000
13016.000,12343.000,12266.000
13067.000,12440.000,12166.000
12909.000,12518.000,12261.000
13082.000,12410.000,12299.000
13119.000,12481.000,12349.000
13191.000,12461.000,12184.000
13129.000,12501.000,12282.000
13186.000,12542.000,12388.000
13190.000,12503.000,12298.000
13133.000,12432.000,12408.000
13138.000,12555.000,12331.000
13211.000,12352.000,12288.000
13042.000,12357.000,12289.000
12958.000,12469.000,12244.000
13059.000,12418.000,12111.000
13031.000,12357.000,12056.000
12965.000,12333.000,12138.000
13083.000,12355.000,12098.000
12910.000,12325.000,12098.000
12844.000,12260.000,12138.000
13050.000,12306.000,12186.000
13023.000,12601.000,12239.000
12941.000,12285.000,12124.000
13024.000,12339.000,12276.000
13087.000,12354.000,12199.000
13097.000,12437.000,12223.000
13084.000,12565.000,12323.000
13038.000,12445.000,12245.000
13168.000,12540.000,12272.000
13041.000,12591.000,12288.000
13175.000,12499.000,12401.000
13120.000,12373.000,12361.000
13126.000,12485.000,12349.000
13059.000,12317.000,12213.000
13107.000,12495.000,12319.000
13123.000,12293.000,12312.000
12968.000,12361.000,12156.000
13211.000,12351.000,12323.000
13043.000,12494.000,12222.000
13091.000,12509.000,12262.000
13092.000,12554.000,12217.000
13187.000,12513.000,12241.000
13055.000,12389.000,12247.000
13134.000,12434.000,12323.000
13177.000,12586.000,12316.000
13097.000,12434.000,12216.000
13040.000,12370.000,12241.000
13120.000,12493.000,12370.000
13127.000,12502.000,12362.000
13043.000,12468.000,12285.000
13183.000,12315.000,12326.000
13103.000,12333.000,12307.000
13017.000,12467.000,12249.000
12996.000,12346.000,12205.000
13117.000,12375.000,12251.000
13013.000,12290.000,12199.000
13055.000,12343.000,12146.000
13029.000,12366.000,12204.000
13022.000,12526.000,12307.000
13112.000,12565.000,12284.000
12999.000,12549.000,12205.000
13135.000,12485.000,12340.000
13033.000,12467.000,12350.000
13127.000,12542.000,12243.000
13065.000,12370.000,12267.000
13012.000,12417.000,12139.000
12945.000,12577.000,12307.000
13061.000,12378.000,12339.000
13227.000,12433.000,12391.000
12993.000,12475.000,12246.000
13057.000,12339.000,12364.000
13158.000,12376.000,12362.000
13050.000,12520.000,12239.000
13208.000,12403.000,12233.000
12979.000,12503.000,12286.000
13059.000,12528.000,12419.000
13100.000,12487.000,12303.000
13055.000,12389.000,12212.000
13121.000,12314.000,12270.000
12962.000,12443.000,12188.000
13089.000,12357.000,12299.000
13016.000,12385.000,12169.000
13018.000,12364.000,12206.000
13067.000,12267.000,12228.000
13030.000,12315.000,12260.000
12962.000,12451.000,12280.000
12960.000,12431.000,12320.000
13076.000,12412.000,12222.000
13036.000,12298.000,12352.000
13019.000,12319.000,12237.000
12908.000,12339.000,12138.000
12967.000,12410.000,12351.000
13091.000,12422.000,12191.000
13093.000,12305.000,12272.000
13019.000,12336.000,12301.000
13136.000,12297.000,12332.000
13027.000,12503.000,12379.000
12955.000,12402.000,12293.000
13000.000,12428.000,12314.000
13001.000,12227.000,12188.000
13011.000,12474.000,12164.000
12932.000,12388.000,12386.000
13012.000,12324.000,12293.000
13020.000,12425.000,12226.000
12975.000,12330.000,12217.000
12917.000,12480.000,12214.000
12950.000,12365.000,12202.000
12955.000,12396.000,12095.000
12925.000,12405.000,12109.000
12994.000,12367.000,12155.000
12879.000,12377.000,12117.000
12952.000,12506.000,12138.000
13053.000,12425.000,12159.000
12889.000,12267.000,12221.000
12979.000,12308.000,12141.000
12988.000,12394.000,12248.000
13008.000,12378.000,12160.000
12897.000,12293.000,12126.000
12861.000,12228.000,12133.000
12921.000,12256.000,11982.000
12836.000,12242.000,11927.000
12810.000,12258.000,12076.000
12840.000,12371.000,12170.000
12807.000,12201.000,11978.000
12798.000,12272.000,12032.000
12729.000,12122.000,12069.000
12761.000,12236.000,12081.000
12802.000,12200.000,12076.000
12918.000,12205.000,12013.000
12801.000,12173.000,12088.000
12759.000,12270.000,12124.000
12836.000,12165.000,12290.000
12808.000,12139.000,12138.000
12850.000,12340.000,12125.000
12822.000,12293.000,12147.000
12806.000,12271.000,12165.000
12911.000,12213.000,12081.000
12898.000,12296.000,12207.000
12878.000,12274.000,12114.000
12838.000,12126.000,12117.000
12858.000,12300.000,12065.000
12759.000,12343.000,12101.000
12972.000,12267.000,12180.000
12885.000,12342.000,12068.000
12870.000,12171.000,11978.000
12807.000,12342.000,12039.000
13040.000,12296.000,12118.000
12824.000,12266.000,12135.000
12873.000,12219.000,11968.000
12720.000,12128.000,12159.000
12755.000,12187.000,12099.000
12701.000,12114.000,12114.000
12761.000,12132.000,12163.000
12968.000,12260.000,12076.000
13018.000,12190.000,12082.000
12774.000,12296.000,12103.000
12862.000,12312.000,12231.000
12770.000,12187.000,12109.000
12872.000,12439.000,12099.000
13063.000,12348.000,12180.000
13039.000,12345.000,12151.000
12901.000,12367.000,12114.000
13045.000,12287.000,12269.000
12875.000,12288.000,12266.000
12927.000,12354.000,12378.000
13013.000,12362.000,12259.000
12936.000,12427.000,12212.000
12994.000,12419.000,12350.000
13081.000,12434.000,12286.000
12981.000,12562.000,12345.000
13138.000,12416.000,12428.000
13143.000,12408.000,12263.000
13007.000,12398.000,12273.000
12994.000,12365.000,12306.000
12974.000,12416.000,12285.000
13000.000,12400.000,12287.000
12955.000,12297.000,12303.000
13037.000,12387.000,12383.000
13015.000,12401.000,12313.000
12921.000,12403.000,12271.000
12891.000,12400.000,12248.000
13001.000,12352.000,12331.000
12982.000,12309.000,12179.000
12952.000,12427.000,12186.000
12936.000,12284.000,12064.000
12988.000,12256.000,12230.000
12952.000,12338.000,12239.000
12872.000,12266.000,12200.000
12921.000,12365.000,12023.000
12980.000,12376.000,12195.000
12901.000,12245.000,12336.000
12865.000,12251.000,12219.000
12859.000,12249.000,12173.000
12962.000,12262.000,12262.000
12924.000,12250.000,12183.000
12985.000,12229.000,12258.000
12729.000,12185.000,12261.000
12678.000,12185.000,12062.000
12747.000,12241.000,12069.000
12830.000,12203.000,12097.000
12754.000,12243.000,12091.000
12923.000,12147.000,12015.000
12614.000,12147.000,12101.000
12605.000,12132.000,12181.000
12668.000,12075.000,12105.000
12700.000,12042.000,12012.000
12618.000,12171.000,12020.000
12647.000,12157.000,12019.000
12608.000,11992.000,11974.000
12671.000,12159.000,12021.000
12706.000,12058.000,12076.000
12761.000,12175.000,12007.000
12593.000,12076.000,12052.000
12776.000,11958.000,12114.000
12537.000,12040.000,12026.000
12559.000,12051.000,11917.000
12628.000,12008.000,11876.000
12665.000,12001.000,11936.000
12596.000,12097.000,12035.000
12664.000,12033.000,11871.000
12520.000,11921.000,11913.000
12456.000,12069.000,11850.000
12586.000,11942.000,11937.000
12628.000,12012.000,11865.000
12386.000,11851.000,11842.000
12516.000,12040.000,11838.000
12491.000,11912.000,11895.000
12475.000,11908.000,11972.000
12491.000,12057.000,11865.000
12587.000,12086.000,11819.000
12589.000,11971.000,11874.000
12547.000,11937.000,11813.000
12502.000,11983.000,11843.000
12606.000,11982.000,11930.000
12514.000,11966.000,11851.000
12508.000,11896.000,11724.000
12563.000,12074.000,11863.000
12556.000,12005.000,12011.000
12608.000,12034.000,11749.000
12474.000,12120.000,11829.000
12588.000,12041.000,11942.000
12680.000,12072.000,11895.000
12548.000,12049.000,11943.000
12608.000,12000.000,11979.000
12556.000,11943.000,11788.000
12557.000,11956.000,11956.000
12557.000,11980.000,11922.000
12527.000,11854.000,11824.000
12581.000,11971.000,11873.000
12631.000,12014.000,11848.000
12565.000,11938.000,11886.000
12535.000,12072.000,11943.000
12638.000,11903.000,11978.000
12527.000,12015.000,12040.000
12582.000,11987.000,11865.000
12595.000,11981.000,11955.000
12566.000,11932.000,11964.000
12504.000,11903.000,11911.000
12619.000,11963.000,11975.000
12622.000,12091.000,11926.000
12507.000,12020.000,12039.000
12694.000,12155.000,12033.000
12578.000,12011.000,11931.000
12461.000,11992.000,11969.000
12527.000,12083.000,11888.000
12508.000,12033.000,11872.000
12634.000,12017.000,11793.000
12502.000,12062.000,11858.000
12487.000,11989.000,11911.000
12398.000,11939.000,11875.000
12491.000,11892.000,11924.000
12452.000,11906.000,11787.000
12453.000,11823.000,11924.000
12318.000,11782.000,11874.000
12351.000,11819.000,11887.000
12419.000,11902.000,11895.000
12333.000,11780.000,11854.000
12479.000,11805.000,11800.000
12409.000,11741.000,11787.000
12314.000,11695.000,11770.000
12325.000,11744.000,11716.000
12342.000,11723.000,11776.000
12287.000,11806.000,11762.000
12160.000,11618.000,11800.000
12191.000,11660.000,11673.000
12290.000,11659.000,11835.000
12151.000,11751.000,11660.000
12313.000,11524.000,11677.000
12287.000,11727.000,11708.000
12175.000,11638.000,11738.000
12139.000,11647.000,11667.000
12302.000,11681.000,11705.000
12148.000,11711.000,11631.000
12144.000,11578.000,11614.000
12223.000,11671.000,11605.000
12081.000,11418.000,11638.000
12276.000,11667.000,11543.000
12173.000,11621.000,11599.000
12138.000,11653.000,11534.000
12114.000,11486.000,11528.000
12087.000,11487.000,11494.000
12169.000,11527.000,11528.000
12051.000,11545.000,11422.000
11987.000,11524.000,11393.000
11993.000,11487.000,11539.000
12014.000,11453.000,11426.000
12055.000,11428.000,11448.000
12015.000,11390.000,11443.000
11909.000,11549.000,11398.000
11955.000,11571.000,11379.000
11786.000,11342.000,11429.000
11867.000,11505.000,11467.000
11951.000,11357.000,11413.000
11937.000,11543.000,11455.000
12002.000,11435.000,11524.000
12022.000,11381.000,11515.000
12148.000,11475.000,11589.000
12099.000,11721.000,11637.000
12152.000,11672.000,11614.000
12168.000,11577.000,11715.000
12015.000,11485.000,11675.000
12051.000,11477.000,11722.000
12024.000,11539.000,11600.000
12003.000,11552.000,11718.000
12098.000,11428.000,11632.000
12070.000,11445.000,11739.000
11957.000,11244.000,11740.000
11862.000,11335.000,11700.000
11970.000,11432.000,11739.000
11930.000,11404.000,11723.000
11691.000,11404.000,11580.000
11801.000,11259.000,11461.000
11756.000,11229.000,11414.000
11929.000,11189.000,11419.000
11738.000,11252.000,11262.000
11771.000,11119.000,11395.000
11705.000,11149.000,11349.000
11790.000,11182.000,11338.000
11750.000,11191.000,11390.000
11797.000,11311.000,11262.000
11793.000,11198.000,11270.000
11749.000,11232.000,11168.000
11923.000,11288.000,11244.000
11799.000,11318.000,11251.000
11804.000,11261.000,11279.000
11764.000,11303.000,11209.000
11829.000,11258.000,11141.000
11688.000,11203.000,11234.000
11678.000,11246.000,11194.000
11702.000,11230.000,11224.000
11663.000,11159.000,11124.000
11727.000,11023.000,11107.000
11601.000,11065.000,11042.000
11632.000,11147.000,11124.000
11585.000,11047.000,11175.000
11579.000,11165.000,11041.000
11550.000,11131.000,11021.000
11571.000,11035.000,11054.000
11466.000,11093.000,10917.000
11425.000,11096.000,10989.000
11475.000,11035.000,10901.000
11476.000,10859.000,10814.000
11323.000,10974.000,10802.000
11415.000,10925.000,10775.000
11391.000,10957.000,10831.000
11448.000,10892.000,10826.000
11449.000,10881.000,10721.000
11421.000,10924.000,10738.000
11300.000,10832.000,10917.000
11335.000,10891.000,10831.000
11278.000,10781.000,10821.000
11416.000,10844.000,10731.000
11362.000,10865.000,10739.000
11328.000,10827.000,10770.000
11314.000,10707.000,10794.000
11254.000,10808.000,10836.000
11283.000,10845.000,10704.000
11253.000,10842.000,10827.000
11355.000,10806.000,10672.000
11183.000,10792.000,10721.000
11278.000,10793.000,10811.000
11333.000,10824.000,10718.000
11136.000,10722.000,10735.000
11304.000,10737.000,10602.000
11261.000,10740.000,10631.000
11274.000,10715.000,10639.000
11184.000,10738.000,10626.000
11206.000,10659.000,10730.000
11051.000,10583.000,10609.000
11046.000,10631.000,10434.000
11102.000,10667.000,10520.000
11027.000,10518.000,10374.000
11030.000,10497.000,10392.000
10823.000,10511.000,10403.000
10902.000,10476.000,10447.000
10996.000,10467.000,10481.000
10960.000,10489.000,10417.000
10795.000,10418.000,10293.000
10803.000,10355.000,10303.000
11004.000,10466.000,10403.000
10902.000,10409.000,10451.000
10800.000,10386.000,10535.000
10913.000,10364.000,10280.000
10914.000,10382.000,10404.000
10806.000,10414.000,10247.000
10823.000,10299.000,10307.000
10748.000,10333.000,10240.000
10746.000,10332.000,10237.000
10806.000,10301.000,10227.000
10756.000,10226.000,10181.000
10723.000,10319.000,10232.000
10657.000,10235.000,10226.000
10666.000,10202.000,10115.000
10694.000,10200.000,10206.000
10638.000,10131.000,10166.000
10658.000,10171.000,10194.000
10484.000,10127.000,10110.000
10597.000,10089.000,10056.000
10660.000,10131.000,10060.000
10435.000,10006.000,10041.000
10548.000,10022.000,9974.000
10425.000,9981.000,9864.000
10559.000,10006.000,9843.000
10247.000,10039.000,9966.000
10401.000,9973.000,9881.000
10406.000,10059.000,9884.000
10363.000,9946.000,9949.000
10393.000,9911.000,9883.000
10409.000,9848.000,9998.000
10421.000,9930.000,9958.000
10355.000,9953.000,9951.000
10348.000,10044.000,9923.000
10424.000,9993.000,9967.000
10420.000,9960.000,10090.000
10394.000,9907.000,9900.000
10358.000,9930.000,9949.000
10352.000,9868.000,9853.000
10333.000,9758.000,9780.000
10240.000,9768.000,9859.000
10237.000,9741.000,9830.000
10194.000,9756.000,9789.000
10195.000,9789.000,9750.000
10165.000,9700.000,9813.000
10012.000,9576.000,9768.000
10033.000,9645.000,9816.000
9991.000,9529.000,9736.000
10133.000,9599.000,9697.000
9898.000,9501.000,9547.000
9887.000,9445.000,9671.000
10010.000,9409.000,9585.000
9826.000,9511.000,9567.000
9835.000,9413.000,9633.000
9917.000,9363.000,9645.000
9882.000,9445.000,9578.000
9799.000,9288.000,9511.000
9775.000,9341.000,9487.000
9739.000,9320.000,9480.000
9758.000,9385.000,9611.000
9857.000,9450.000,9757.000
10027.000,9388.000,9775.000
9886.000,9426.000,9861.000
9827.000,9385.000,9861.000
9945.000,9375.000,9889.000
9891.000,9267.000,9844.000
9868.000,9313.000,9991.000
9863.000,9343.000,9954.000
9827.000,9339.000,9890.000
9771.000,9307.000,9932.000
9699.000,9263.000,9673.000
9634.000,9173.000,9704.000
9569.000,9215.000,9678.000
9595.000,9118.000,9585.000
9568.000,9118.000,9528.000
9532.000,9068.000,9285.000
9402.000,9028.000,9331.000
9517.000,9050.000,9323.000
9439.000,9049.000,9260.000
9440.000,9007.000,9115.000
9351.000,8936.000,9217.000
9348.000,8891.000,9153.000
9348.000,8899.000,9230.000
9363.000,8951.000,9235.000
9390.000,8931.000,9069.000
9302.000,8912.000,9149.000
9370.000,8857.000,9141.000
9416.000,8916.000,9024.000
9374.000,9014.000,9178.000
9389.000,8949.000,9131.000
9367.000,8964.000,9172.000
9424.000,9022.000,9325.000
9419.000,9049.000,9245.000
9417.000,8899.000,9309.000
9408.000,8844.000,9228.000
9374.000,8885.000,9272.000
9341.000,8930.000,9358.000
9272.000,8830.000,9370.000
9352.000,8888.000,9311.000
9378.000,8892.000,9363.000
9353.000,8794.000,9370.000
9372.000,8885.000,9456.000
9361.000,8853.000,9496.000
9314.000,8899.000,9371.000
9271.000,8880.000,9550.000
9339.000,8941.000,9563.000
9344.000,8875.000,9536.000
9379.000,8869.000,9485.000
9360.000,8898.000,9412.000
9308.000,8898.000,9230.000
9298.000,8891.000,9268.000
9204.000,8836.000,9181.000
9074.000,8784.000,9060.000
9202.000,8770.000,9001.000
9171.000,8795.000,9019.000
9104.000,8820.000,9004.000
9043.000,8640.000,8810.000
9138.000,8678.000,8810.000
9018.000,8728.000,8689.000
9035.000,8593.000,8635.000
8922.000,8596.000,8682.000
8872.000,8583.000,8672.000
8967.000,8714.000,8751.000
8997.000,8622.000,8710.000
9008.000,8533.000,8713.000
9088.000,8667.000,8753.000
9103.000,8736.000,8771.000
9036.000,8610.000,8619.000
9043.000,8698.000,8669.000
9075.000,8761.000,8690.000
9021.000,8553.000,8749.000
8943.000,8623.000,8665.000
8960.000,8655.000,8584.000
8928.000,8512.000,8599.000
8959.000,8582.000,8509.000
8898.000,8560.000,8542.000
8884.000,8577.000,8590.000
8931.000,8574.000,8554.000
8933.000,8577.000,8698.000
9069.000,8657.000,8637.000
9061.000,8617.000,8632.000
9011.000,8619.000,8714.000
8970.000,8644.000,8629.000
8998.000,8717.000,8655.000
9050.000,8654.000,8688.000
8937.000,8665.000,8714.000
8942.000,8671.000,8584.000
8868.000,8585.000,8620.000
8916.000,8512.000,8522.000
8791.000,8512.000,8487.000
8882.000,8510.000,8494.000
8840.000,8488.000,8454.000
8893.000,8512.000,8503.000
8841.000,8546.000,8508.000
8860.000,8513.000,8554.000
8912.000,8567.000,8617.000
8997.000,8562.000,8617.000
8947.000,8608.000,8676.000
8870.000,8568.000,8618.000
8978.000,8600.000,8671.000
8958.000,8616.000,8710.000
8882.000,8581.000,8724.000
9009.000,8486.000,8600.000
8876.000,8549.000,8612.000
8917.000,8470.000,8674.000
8797.000,8597.000,8498.000
8789.000,8469.000,8566.000
8769.000,8531.000,8611.000
8919.000,8500.000,8624.000
8814.000,8494.000,8744.000
8940.000,8569.000,8783.000
8908.000,8634.000,8797.000
8934.000,8652.000,8924.000
9032.000,8654.000,9020.000
9030.000,8710.000,8951.000
9088.000,8742.000,8911.000
9076.000,8819.000,8939.000
9012.000,8593.000,9022.000
8964.000,8627.000,8872.000
8860.000,8565.000,8719.000
8891.000,8541.000,8770.000
8902.000,8502.000,8765.000
8867.000,8476.000,8749.000
8796.000,8485.000,8652.000
8889.000,8498.000,8785.000
8834.000,8466.000,8683.000
8770.000,8500.000,8827.000
8905.000,8539.000,8833.000
8840.000,8519.000,8793.000
8870.000,8665.000,8794.000
8886.000,8536.000,8772.000
8871.000,8596.000,8696.000
8921.000,8576.000,8765.000
8892.000,8496.000,8707.000
8865.000,8560.000,8665.000
8902.000,8511.000,8655.000
8890.000,8487.000,8624.000
8759.000,8444.000,8628.000
8779.000,8514.000,8608.000
8827.000,8501.000,8633.000
8736.000,8497.000,8555.000
8707.000,8430.000,8595.000
8813.000,8400.000,8527.000
8780.000,8433.000,8551.000
8756.000,8291.000,8564.000
8794.000,8491.000,8531.000
8779.000,8416.000,8498.000
8771.000,8482.000,8528.000
8808.000,8433.000,8572.000
8856.000,8485.000,8508.000
8929.000,8455.000,8651.000
8730.000,8492.000,8544.000
8844.000,8583.000,8546.000
8791.000,8508.000,8670.000
8902.000,8563.000,8608.000
8773.000,8618.000,8575.000
8848.000,8503.000,8672.000
8990.000,8573.000,8614.000
8833.000,8445.000,8518.000
8809.000,8544.000,8495.000
8836.000,8497.000,8448.000
8775.000,8408.000,8610.000
8731.000,8480.000,8619.000
8725.000,8379.000,8515.000
8665.000,8368.000,8513.000
8663.000,8455.000,8474.000
8606.000,8396.000,8411.000
8666.000,8348.000,8411.000
8587.000,8337.000,8384.000
8561.000,8370.000,8335.000
8658.000,8293.000,8372.000
8630.000,8276.000,8323.000
8555.000,8317.000,8379.000
8577.000,8327.000,8283.000
8607.000,8282.000,8356.000
8598.000,8302.000,8339.000
8642.000,8339.000,8308.000
8684.000,8337.000,8393.000
8644.000,8348.000,8374.000
8705.000,8357.000,8433.000
8747.000,8485.000,8337.000
8631.000,8349.000,8379.000
8640.000,8313.000,8385.000
8683.000,8308.000,8310.000
8625.000,8320.000,8239.000
8584.000,8304.000,8263.000
8571.000,8242.000,8300.000
8548.000,8221.000,8247.000
8529.000,8167.000,8178.000
8434.000,8099.000,8164.000
8392.000,8113.000,8152.000
8353.000,8176.000,8039.000
8335.000,8053.000,8091.000
8362.000,8068.000,8066.000
8252.000,7933.000,8042.000
8265.000,8101.000,7994.000
8392.000,8057.000,8032.000
8295.000,8017.000,7971.000
8315.000,7950.000,8052.000
8211.000,8025.000,8029.000
8380.000,8062.000,8058.000
8301.000,7889.000,7991.000
8295.000,7986.000,7988.000
8339.000,7992.000,7926.000
8384.000,8013.000,7869.000
8352.000,7940.000,7960.000
8395.000,8028.000,7973.000
8287.000,7891.000,7911.000
8278.000,7952.000,8069.000
8345.000,7901.000,7967.000
8217.000,7990.000,7988.000
8228.000,7863.000,7915.000
8246.000,7989.000,7898.000
8245.000,7914.000,7923.000
8141.000,7871.000,7920.000
8178.000,7863.000,7788.000
8151.000,7856.000,7915.000
8186.000,7831.000,7897.000
8141.000,7861.000,7818.000
8132.000,7751.000,7773.000
8084.000,7879.000,7887.000
8116.000,7816.000,7812.000
8086.000,7786.000,7795.000
8086.000,7770.000,7784.000
8055.000,7767.000,7760.000
7999.000,7702.000,7682.000
7979.000,7644.000,7732.000
8020.000,7654.000,7753.000
7934.000,7688.000,7739.000
8031.000,7612.000,7676.000
7914.000,7623.000,7648.000
7949.000,7728.000,7694.000
7882.000,7544.000,7736.000
7886.000,7567.000,7682.000
7924.000,7597.000,7562.000
7872.000,7537.000,7648.000
7779.000,7608.000,7606.000
7838.000,7592.000,7592.000
7817.000,7600.000,7613.000
7900.000,7617.000,7722.000
7928.000,7534.000,7644.000
7951.000,7642.000,7694.000
7854.000,7682.000,7764.000
7810.000,7628.000,7675.000
7901.000,7519.000,7679.000
7905.000,7714.000,7535.000
7809.000,7535.000,7561.000
7892.000,7540.000,7579.000
7956.000,7683.000,7651.000
7894.000,7617.000,7586.000
7916.000,7616.000,7603.000
7784.000,7588.000,7523.000
7817.000,7543.000,7518.000
7847.000,7516.000,7550.000
7784.000,7453.000,7487.000
7817.000,7504.000,7472.000
7781.000,7458.000,7434.000
7847.000,7334.000,7361.000
7739.000,7455.000,7424.000
7662.000,7368.000,7437.000
7698.000,7406.000,7417.000
7662.000,7393.000,7416.000
7601.000,7373.000,7275.000
7582.000,7394.000,7374.000
7630.000,7335.000,7183.000
7497.000,7299.000,7274.000
7512.000,7287.000,7317.000
7489.000,7266.000,7266.000
7564.000,7171.000,7218.000
7497.000,7265.000,7283.000
7509.000,7209.000,7246.000
7474.000,7300.000,7257.000
7458.000,7232.000,7210.000
7580.000,7247.000,7274.000
7543.000,7295.000,7228.000
7558.000,7208.000,7279.000
7535.000,7346.000,7302.000
7616.000,7302.000,7303.000
7583.000,7228.000,7345.000
7644.000,7429.000,7359.000
7609.000,7359.000,7418.000
7602.000,7367.000,7419.000
7697.000,7353.000,7457.000
7577.000,7370.000,7356.000
7552.000,7325.000,7345.000
7681.000,7410.000,7335.000
7609.000,7391.000,7424.000
7552.000,7300.000,7437.000
7586.000,7379.000,7341.000
7547.000,7320.000,7435.000
7553.000,7342.000,7340.000
7623.000,7258.000,7335.000
7493.000,7329.000,7286.000
7497.000,7308.000,7369.000
7457.000,7302.000,7306.000
7479.000,7209.000,7272.000
7482.000,7190.000,7212.000
7475.000,7283.000,7220.000
7390.000,7227.000,7247.000
7359.000,7127.000,7240.000
7265.000,7115.000,7143.000
7371.000,7083.000,7147.000
7262.000,7109.000,7080.000
7295.000,7028.000,7071.000
7245.000,6955.000,7047.000
7249.000,6903.000,6948.000
7204.000,6898.000,6945.000
7214.000,6954.000,7001.000
7197.000,6880.000,6893.000
7084.000,6862.000,6897.000
7091.000,6796.000,6912.000
7065.000,6899.000,6861.000
7063.000,6846.000,6817.000
6965.000,6814.000,6823.000
7108.000,6770.000,6798.000
7037.000,6718.000,6785.000
6990.000,6739.000,6664.000
6917.000,6796.000,6698.000
6877.000,6685.000,6706.000
6954.000,6715.000,6707.000
6940.000,6690.000,6757.000
6944.000,6799.000,6731.000
7015.000,6748.000,6725.000
6908.000,6664.000,6718.000
6920.000,6695.000,6665.000
6817.000,6652.000,6607.000
6894.000,6650.000,6615.000
6931.000,6629.000,6689.000
6855.000,6670.000,6640.000
6859.000,6581.000,6546.000
6778.000,6594.000,6558.000
6838.000,6615.000,6487.000
6843.000,6560.000,6613.000
6787.000,6503.000,6457.000
6763.000,6614.000,6506.000
6778.000,6488.000,6454.000
6618.000,6406.000,6406.000
6619.000,6363.000,6419.000
6675.000,6384.000,6405.000
6563.000,6408.000,6408.000
6574.000,6354.000,6349.000
6479.000,6307.000,6338.000
6542.000,6273.000,6258.000
6439.000,6277.000,6339.000
6469.000,6206.000,6303.000
6443.000,6295.000,6211.000
6431.000,6162.000,6151.000
6410.000,6213.000,6209.000
6379.000,6184.000,6126.000
6368.000,6117.000,6182.000
6386.000,6176.000,6119.000
6422.000,6119.000,6153.000
6334.000,6189.000,6101.000
6248.000,6086.000,6070.000
6283.000,6092.000,6083.000
6301.000,6107.000,5995.000
6192.000,5968.000,6018.000
6124.000,6065.000,6007.000
6246.000,6019.000,6027.000
6253.000,5999.000,5996.000
6192.000,6020.000,5971.000
6107.000,5973.000,5985.000
6194.000,5991.000,5973.000
6174.000,5911.000,5973.000
6211.000,6021.000,5979.000
6181.000,5980.000,6029.000
6223.000,5969.000,5930.000
6130.000,6029.000,5936.000
6203.000,6009.000,5964.000
6129.000,5983.000,5950.000
6153.000,5889.000,5918.000
6083.000,5869.000,5910.000
6077.000,5903.000,5846.000
6037.000,5926.000,5864.000
6058.000,5881.000,5948.000
6059.000,5806.000,5825.000
6052.000,5786.000,5838.000
6039.000,5832.000,5835.000
5962.000,5800.000,5768.000
6005.000,5781.000,5687.000
5943.000,5763.000,5656.000
5933.000,5766.000,5688.000
5917.000,5654.000,5687.000
5877.000,5648.000,5608.000
5848.000,5607.000,5596.000
5806.000,5621.000,5642.000
5812.000,5615.000,5604.000
5726.000,5553.000,5533.000
5683.000,5478.000,5523.000
5730.000,5459.000,5463.000
5659.000,5485.000,5558.000
5620.000,5416.000,5479.000
5551.000,5472.000,5394.000
5552.000,5422.000,5407.000
5559.000,5392.000,5329.000
5539.000,5301.000,5368.000
5496.000,5309.000,5326.000
5508.000,5241.000,5317.000
5447.000,5298.000,5320.000
5439.000,5319.000,5329.000
5438.000,5256.000,5356.000
5466.000,5192.000,5244.000
5390.000,5240.000,5315.000
5341.000,5210.000,5274.000
5347.000,5195.000,5280.000
5424.000,5227.000,5255.000
5446.000,5298.000,5278.000
5299.000,5204.000,5283.000
5335.000,5153.000,5213.000
5343.000,5089.000,5207.000
5275.000,5190.000,5348.000
5332.000,5154.000,5222.000
5355.000,5124.000,5184.000
5355.000,5153.000,5233.000
5331.000,5210.000,5172.000
5276.000,5198.000,5229.000
5292.000,5091.000,5231.000
5278.000,5062.000,5193.000
5315.000,5111.000,5236.000
5293.000,5039.000,5183.000
5215.000,5032.000,5212.000
5274.000,5033.000,5137.000
5236.000,5083.000,5061.000
5196.000,4981.000,5111.000
5124.000,5033.000,5144.000
5109.000,4944.000,5072.000
5103.000,4911.000,5096.000
5143.000,4913.000,5114.000
5094.000,4905.000,5080.000
5120.000,4910.000,5091.000
5115.000,4931.000,5135.000
5081.000,4837.000,5130.000
5068.000,4889.000,5159.000
5048.000,4866.000,5244.000
4990.000,4890.000,5173.000
5038.000,4803.000,5258.000
5010.000,4716.000,5231.000
5018.000,4757.000,5200.000
5046.000,4788.000,5318.000
4983.000,4743.000,5370.000
4989.000,4875.000,5398.000
4963.000,4733.000,5448.000
5051.000,4764.000,5469.000
5022.000,4734.000,5519.000
5032.000,4797.000,5535.000
5030.000,4813.000,5576.000
5024.000,4796.000,5717.000
5089.000,4710.000,5742.000
5010.000,4776.000,5819.000
5104.000,4798.000,5885.000
5077.000,4804.000,5940.000
5101.000,4865.000,5963.000
5124.000,4816.000,5943.000
5149.000,4792.000,6060.000
5100.000,4817.000,5961.000
5011.000,4761.000,5899.000
5033.000,4754.000,5928.000
4984.000,4745.000,5829.000
5023.000,4759.000,5741.000
4971.000,4671.000,5682.000
4988.000,4729.000,5526.000
4937.000,4663.000,5527.000
4892.000,4683.000,5432.000
4863.000,4618.000,5332.000
4819.000,4540.000,5252.000
4754.000,4561.000,5201.000
4798.000,4557.000,5140.000
4722.000,4533.000,4982.000
4688.000,4502.000,4944.000
4612.000,4488.000,4974.000
4676.000,4460.000,4802.000
4573.000,4464.000,4831.000
4695.000,4405.000,4794.000
4555.000,4342.000,4691.000
4535.000,4279.000,4655.000
4450.000,4345.000,4620.000
4446.000,4322.000,4520.000
4431.000,4355.000,4510.000
4404.000,4254.000,4449.000
4374.000,4215.000,4430.000
4360.000,4225.000,4407.000
4366.000,4212.000,4362.000
4390.000,4200.000,4367.000
4334.000,4180.000,4352.000
4331.000,4161.000,4312.000
4278.000,4162.000,4343.000
4297.000,4190.000,4312.000
4337.000,4191.000,4321.000
4229.000,4147.000,4212.000
4333.000,4203.000,4277.000
4271.000,4183.000,4215.000
4309.000,4147.000,4171.000
4290.000,4193.000,4272.000
4317.000,4122.000,4263.000
4293.000,4155.000,4292.000
4246.000,4198.000,4257.000
4234.000,4169.000,4337.000
4304.000,4179.000,4322.000
4332.000,4155.000,4292.000
4315.000,4126.000,4260.000
4336.000,4211.000,4294.000
4313.000,4146.000,4294.000
4282.000,4198.000,4340.000
4287.000,4197.000,4222.000
4267.000,4188.000,4231.000
4297.000,4170.000,4152.000
4251.000,4189.000,4126.000
4281.000,4142.000,4197.000
4289.000,4154.000,4189.000
4251.000,4123.000,4122.000
4220.000,4138.000,4121.000
4176.000,4037.000,4090.000
4154.000,4037.000,4071.000
4198.000,4059.000,4147.000
4193.000,4031.000,4079.000
4126.000,3989.000,4054.000
4131.000,4005.000,4026.000
4109.000,3953.000,4014.000
4085.000,3973.000,4019.000
4068.000,3975.000,3992.000
4119.000,4014.000,4026.000
4156.000,4012.000,4040.000
4130.000,4031.000,4026.000
4140.000,4037.000,4072.000
4113.000,4005.000,4058.000
4158.000,4032.000,4086.000
4220.000,3987.000,4092.000
4147.000,4055.000,4054.000
4165.000,4075.000,4087.000
4135.000,3996.000,4067.000
4137.000,4086.000,4024.000
4132.000,4087.000,4061.000
4132.000,4099.000,3997.000
4140.000,4098.000,4061.000
4123.000,4019.000,4070.000
4124.000,4006.000,4078.000
4122.000,4037.000,4075.000
4130.000,4005.000,4070.000
4095.000,3992.000,4037.000
4129.000,3984.000,3993.000
4101.000,4016.000,4014.000
4125.000,3990.000,3978.000
4012.000,3970.000,3991.000
4008.000,3883.000,3912.000
3995.000,3965.000,3941.000
4031.000,3937.000,3908.000
4068.000,3895.000,3908.000
3962.000,3886.000,3872.000
3980.000,3880.000,3845.000
3950.000,3867.000,3894.000
3966.000,3874.000,3882.000
3928.000,3805.000,3856.000
3903.000,3927.000,3816.000
3960.000,3787.000,3822.000
3927.000,3837.000,3830.000
3923.000,3837.000,3856.000
3956.000,3883.000,3801.000
3977.000,3882.000,3891.000
3959.000,3898.000,3900.000
3994.000,3889.000,3850.000
4061.000,3856.000,3893.000
3978.000,3920.000,3893.000
4030.000,3840.000,3905.000
3961.000,3886.000,3964.000
4008.000,3913.000,3915.000
4067.000,3868.000,3911.000
4019.000,3898.000,3904.000
4002.000,3892.000,3919.000
4008.000,3879.000,3897.000
3989.000,3897.000,3927.000
3967.000,3936.000,3916.000
3953.000,3986.000,3908.000
3950.000,3906.000,3828.000
4059.000,3876.000,3848.000
4003.000,3891.000,3917.000
3975.000,3900.000,3884.000
3922.000,3879.000,3888.000
3971.000,3817.000,3858.000
3976.000,3824.000,3822.000
3929.000,3788.000,3819.000
3947.000,3835.000,3859.000
3978.000,3867.000,3866.000
3916.000,3813.000,3812.000
3909.000,3789.000,3798.000
3902.000,3793.000,3752.000
3886.000,3730.000,3759.000
3852.000,3744.000,3737.000
3789.000,3734.000,3726.000
3818.000,3755.000,3738.000
3818.000,3746.000,3699.000
3869.000,3702.000,3770.000
3845.000,3715.000,3755.000
3826.000,3755.000,3767.000
3813.000,3733.000,3711.000
3768.000,3668.000,3753.000
3833.000,3703.000,3667.000
3833.000,3707.000,3754.000
3754.000,3747.000,3711.000
3817.000,3736.000,3711.000
3876.000,3718.000,3729.000
3867.000,3690.000,3670.000
3824.000,3734.000,3697.000
3794.000,3739.000,3704.000
3845.000,3741.000,3725.000
3821.000,3696.000,3753.000
3862.000,3745.000,3769.000
3847.000,3810.000,3796.000
3904.000,3719.000,3758.000
3868.000,3805.000,3808.000
3804.000,3806.000,3771.000
3894.000,3732.000,3745.000
3864.000,3739.000,3805.000
3898.000,3762.000,3742.000
3878.000,3778.000,3777.000
3905.000,3741.000,3803.000
3882.000,3769.000,3736.000
3869.000,3741.000,3754.000
3847.000,3755.000,3702.000
3853.000,3729.000,3780.000
3819.000,3761.000,3728.000
3879.000,3706.000,3670.000
3835.000,3731.000,3766.000
3797.000,3682.000,3721.000
3764.000,3707.000,3656.000
3789.000,3683.000,3720.000
3783.000,3698.000,3645.000
3729.000,3703.000,3713.000
3803.000,3642.000,3689.000
3750.000,3607.000,3597.000
3667.000,3612.000,3629.000
3721.000,3635.000,3539.000
3727.000,3634.000,3638.000
3651.000,3589.000,3589.000
3742.000,3550.000,3521.000
3692.000,3557.000,3597.000
3647.000,3578.000,3576.000
3690.000,3595.000,3659.000
3669.000,3567.000,3537.000
3671.000,3613.000,3575.000
3709.000,3566.000,3652.000
3666.000,3646.000,3605.000
3741.000,3617.000,3640.000
3726.000,3668.000,3658.000
3721.000,3682.000,3647.000
3738.000,3637.000,3670.000
3739.000,3646.000,3620.000
3703.000,3656.000,3621.000
3757.000,3585.000,3674.000
3820.000,3699.000,3652.000
3735.000,3712.000,3647.000
3764.000,3704.000,3609.000
3773.000,3671.000,3656.000
3776.000,3681.000,3666.000
3755.000,3640.000,3631.000
3777.000,3610.000,3610.000
3685.000,3655.000,3658.000
3688.000,3602.000,3585.000
3749.000,3608.000,3630.000
3702.000,3583.000,3592.000
3656.000,3573.000,3614.000
3628.000,3639.000,3567.000
3640.000,3595.000,3565.000
3667.000,3573.000,3504.000
3638.000,3553.000,3515.000
3559.000,3523.000,3533.000
3620.000,3552.000,3543.000
3604.000,3502.000,3492.000
3598.000,3506.000,3506.000
3588.000,3494.000,3449.000
3572.000,3484.000,3494.000
3604.000,3509.000,3506.000
3591.000,3523.000,3490.000
3552.000,3541.000,3519.000
3569.000,3511.000,3495.000
3633.000,3514.000,3579.000
3594.000,3550.000,3540.000
3635.000,3543.000,3541.000
3575.000,3621.000,3518.000
3703.000,3572.000,3526.000
3693.000,3514.000,3560.000
3655.000,3588.000,3541.000
3649.000,3591.000,3563.000
3670.000,3564.000,3533.000
3610.000,3583.000,3548.000
3698.000,3601.000,3577.000
3694.000,3560.000,3605.000
3647.000,3486.000,3545.000
3648.000,3601.000,3529.000
3679.000,3592.000,3527.000
3641.000,3533.000,3520.000
3646.000,3536.000,3461.000
3624.000,3472.000,3503.000
3574.000,3498.000,3494.000
3562.000,3465.000,3502.000
3552.000,3400.000,3496.000
3621.000,3467.000,3436.000
3516.000,3441.000,3433.000
3522.000,3437.000,3439.000
3526.000,3385.000,3468.000
3587.000,3416.000,3418.000
3518.000,3425.000,3417.000
3498.000,3367.000,3376.000
3415.000,3400.000,3344.000
3440.000,3376.000,3357.000
3454.000,3391.000,3349.000
3442.000,3357.000,3352.000
3429.000,3352.000,3363.000
3451.000,3392.000,3384.000
3524.000,3345.000,3350.000
3416.000,3367.000,3325.000
3469.000,3356.000,3383.000
3514.000,3319.000,3385.000
3459.000,3330.000,3358.000
3443.000,3375.000,3394.000
3463.000,3385.000,3349.000
3439.000,3411.000,3338.000
3484.000,3368.000,3362.000
3433.000,3417.000,3358.000
3448.000,3399.000,3382.000
3515.000,3393.000,3415.000
3489.000,3354.000,3372.000
3504.000,3339.000,3404.000
3458.000,3368.000,3344.000
3411.000,3360.000,3388.000
3405.000,3388.000,3349.000
3471.000,3325.000,3336.000
3414.000,3341.000,3321.000
3457.000,3393.000,3312.000
3397.000,3303.000,3347.000
3353.000,3330.000,3304.000
3378.000,3311.000,3308.000
3352.000,3247.000,3287.000
3356.000,3252.000,3269.000
3316.000,3260.000,3268.000
3351.000,3268.000,3257.000
3381.000,3232.000,3248.000
3272.000,3210.000,3240.000
3249.000,3227.000,3235.000
3301.000,3200.000,3161.000
3288.000,3204.000,3214.000
3272.000,3197.000,3140.000
3267.000,3195.000,3129.000
3214.000,3154.000,3124.000
3215.000,3125.000,3172.000
3195.000,3138.000,3161.000
3198.000,3111.000,3142.000
3217.000,3091.000,3108.000
3200.000,3105.000,3152.000
3228.000,3099.000,3080.000
3192.000,3084.000,3087.000
3145.000,3083.000,3100.000
3184.000,3036.000,3053.000
3197.000,3067.000,3051.000
3153.000,3076.000,3091.000
3172.000,3113.000,3091.000
3193.000,3076.000,3063.000
3183.000,3082.000,3107.000
3169.000,3042.000,3088.000
3199.000,3106.000,3031.000
3155.000,3101.000,3105.000
3189.000,3051.000,3101.000
3140.000,3055.000,3096.000
3179.000,3067.000,3049.000
3128.000,3064.000,3060.000
3164.000,3086.000,3085.000
3129.000,3043.000,3015.000
3118.000,3044.000,3061.000
3110.000,3068.000,3063.000
3148.000,3069.000,3041.000
3131.000,3059.000,3046.000
3114.000,3018.000,3092.000
3123.000,3016.000,3056.000
3123.000,3017.000,3021.000
3127.000,3014.000,3029.000
3090.000,3014.000,3029.000
3079.000,2999.000,3001.000
3123.000,3009.000,3024.000
3055.000,2994.000,3007.000
3056.000,2960.000,2926.000
3039.000,2975.000,2963.000
3050.000,2932.000,3000.000
2988.000,2955.000,2939.000
3005.000,2924.000,2906.000
2994.000,2910.000,2850.000
2960.000,2890.000,2878.000
2991.000,2878.000,2903.000
2934.000,2856.000,2885.000
2938.000,2853.000,2830.000
2939.000,2848.000,2859.000
2925.000,2803.000,2834.000
2839.000,2799.000,2826.000
2917.000,2810.000,2843.000
2868.000,2832.000,2807.000
2912.000,2806.000,2818.000
2879.000,2795.000,2781.000
2854.000,2800.000,2806.000
2824.000,2777.000,2774.000
2842.000,2782.000,2755.000
2869.000,2868.000,2818.000
2840.000,2807.000,2830.000
2845.000,2803.000,2792.000
2866.000,2817.000,2841.000
2893.000,2815.000,2793.000
2856.000,2806.000,2810.000
2878.000,2770.000,2801.000
2915.000,2812.000,2790.000
2846.000,2807.000,2818.000
2874.000,2803.000,2787.000
2877.000,2824.000,2785.000
2866.000,2786.000,2807.000
2878.000,2791.000,2763.000
2808.000,2777.000,2757.000
2805.000,2764.000,2745.000
2840.000,2767.000,2785.000
2795.000,2795.000,2766.000
2821.000,2723.000,2758.000
2781.000,2733.000,2723.000
2779.000,2723.000,2724.000
2774.000,2701.000,2721.000
2777.000,2691.000,2754.000
2766.000,2692.000,2704.000
2752.000,2707.000,2723.000
2768.000,2728.000,2696.000
2738.000,2692.000,2693.000
2721.000,2674.000,2687.000
2703.000,2649.000,2695.000
2716.000,2657.000,2671.000
2749.000,2643.000,2624.000
2681.000,2607.000,2617.000
2663.000,2607.000,2598.000
2610.000,2596.000,2578.000
2684.000,2574.000,2621.000
2625.000,2631.000,2590.000
2644.000,2574.000,2560.000
2648.000,2567.000,2553.000
2607.000,2543.000,2566.000
2571.000,2520.000,2517.000
2569.000,2518.000,2537.000
2596.000,2505.000,2529.000
2599.000,2505.000,2502.000
2546.000,2520.000,2495.000
2590.000,2524.000,2519.000
2543.000,2494.000,2522.000
2555.000,2507.000,2447.000
2543.000,2506.000,2493.000
2504.000,2449.000,2512.000
2573.000,2496.000,2493.000
2518.000,2512.000,2489.000
2524.000,2475.000,2460.000
2536.000,2464.000,2450.000
2553.000,2484.000,2505.000
2502.000,2469.000,2510.000
2523.000,2483.000,2459.000
2558.000,2433.000,2475.000
2527.000,2478.000,2466.000
2505.000,2486.000,2487.000
2476.000,2465.000,2452.000
2542.000,2492.000,2487.000
2488.000,2424.000,2472.000
2502.000,2463.000,2494.000
2530.000,2423.000,2449.000
2478.000,2409.000,2442.000
2483.000,2457.000,2444.000
2437.000,2427.000,2430.000
2470.000,2426.000,2372.000
2502.000,2407.000,2430.000
2453.000,2405.000,2391.000
2425.000,2381.000,2381.000
2410.000,2391.000,2368.000
2399.000,2375.000,2336.000
2396.000,2378.000,2362.000
2379.000,2365.000,2325.000
2387.000,2334.000,2334.000
2410.000,2293.000,2335.000
2379.000,2355.000,2324.000
2355.000,2308.000,2324.000
2347.000,2318.000,2282.000
2342.000,2292.000,2283.000
2317.000,2251.000,2268.000
2298.000,2284.000,2286.000
2287.000,2259.000,2260.000
2278.000,2263.000,2228.000
2287.000,2271.000,2238.000
2294.000,2250.000,2249.000
2288.000,2205.000,2210.000
2219.000,2199.000,2240.000
2261.000,2213.000,2199.000
2240.000,2157.000,2202.000
2217.000,2183.000,2213.000
2236.000,2209.000,2186.000
2224.000,2194.000,2193.000
2204.000,2190.000,2186.000
2236.000,2176.000,2175.000
2201.000,2179.000,2197.000
2227.000,2204.000,2167.000
2212.000,2187.000,2171.000
2207.000,2164.000,2184.000
2184.000,2178.000,2186.000
2242.000,2192.000,2176.000
2170.000,2149.000,2156.000
2234.000,2165.000,2146.000
2205.000,2162.000,2154.000
2176.000,2170.000,2159.000
2202.000,2159.000,2156.000
2191.000,2125.000,2159.000
2199.000,2155.000,2147.000
2165.000,2152.000,2147.000
2163.000,2093.000,2111.000
2179.000,2128.000,2120.000
2157.000,2098.000,2112.000
2172.000,2090.000,2097.000
2129.000,2110.000,2082.000
2127.000,2102.000,2089.000
2101.000,2096.000,2081.000
2124.000,2073.000,2054.000
2099.000,2062.000,2077.000
2085.000,2069.000,2086.000
2060.000,2068.000,2064.000
2080.000,2056.000,2039.000
2089.000,2026.000,2035.000
2054.000,2020.000,2033.000
2049.000,2032.000,2045.000
2029.000,2006.000,1985.000
2036.000,1978.000,2014.000
2027.000,1978.000,1963.000
1987.000,1949.000,1969.000
