Focus Mode,Read Mode,Exposure Time (sec),Number of Frames,Start Y,End Y,Date,Time,Position (microns)
Single Acquisition,Spectrum,20.000000,3,105,125,2/11/2021,5:55:07 PM,0.000000,0.000000,200.010000,

1303.000,1299.000,1301.000
1305.000,1286.000,1287.000
1298.000,1284.000,1286.000
1299.000,1290.000,1293.000
1288.000,1287.000,1291.000
1295.000,1299.000,1283.000
1294.000,1293.000,1289.000
1295.000,1296.000,1292.000
1301.000,1291.000,1284.000
1288.000,1290.000,1297.000
1295.000,1284.000,1290.000
1293.000,1286.000,1285.000
1291.000,1286.000,1283.000
1291.000,1294.000,1286.000
1294.000,1301.000,1292.000
1295.000,1292.000,1287.000
1288.000,1298.000,1282.000
1291.000,1295.000,1293.000
1294.000,1297.000,1300.000
1301.000,1301.000,1294.000
1299.000,1297.000,1295.000
1299.000,1299.000,1307.000
1290.000,1306.000,1299.000
1299.000,1306.000,1306.000
1304.000,1302.000,1306.000
1307.000,1320.000,1295.000
1300.000,1317.000,1305.000
1307.000,1309.000,1313.000
1315.000,1316.000,1307.000
1315.000,1321.000,1315.000
1315.000,1321.000,1319.000
1309.000,1324.000,1321.000
1323.000,1335.000,1327.000
1334.000,1328.000,1326.000
1329.000,1337.000,1342.000
1333.000,1327.000,1329.000
1345.000,1337.000,1343.000
1347.000,1350.000,1341.000
1346.000,1349.000,1345.000
1362.000,1342.000,1350.000
1361.000,1361.000,1359.000
1356.000,1364.000,1356.000
1357.000,1380.000,1362.000
1372.000,1379.000,1369.000
1392.000,1381.000,1378.000
1388.000,1388.000,1371.000
1395.000,2730.000,1400.000
1412.000,4825.000,1402.000
1413.000,4466.000,1391.000
1411.000,1419.000,1416.000
1439.000,1428.000,1419.000
1430.000,1435.000,1439.000
1455.000,1445.000,1440.000
1449.000,1441.000,1451.000
1454.000,1447.000,1450.000
1472.000,1464.000,1453.000
1490.000,1469.000,1476.000
1483.000,1475.000,1464.000
1487.000,1474.000,1467.000
1483.000,1480.000,1465.000
1477.000,1475.000,1476.000
1497.000,1487.000,1479.000
1495.000,1493.000,1478.000
1483.000,1471.000,1493.000
1466.000,1483.000,1481.000
1483.000,1489.000,1499.000
1494.000,1507.000,1470.000
1491.000,1507.000,1518.000
1511.000,1533.000,1529.000
1532.000,1561.000,1544.000
1582.000,1563.000,1548.000
1588.000,1612.000,1610.000
1650.000,1644.000,1632.000
1676.000,1678.000,1659.000
1712.000,1718.000,1705.000
1741.000,1744.000,1705.000
1747.000,1759.000,1747.000
1754.000,1788.000,1751.000
1746.000,1777.000,1766.000
1758.000,1793.000,1786.000
1787.000,1820.000,1784.000
1796.000,1829.000,1784.000
1805.000,1803.000,1762.000
1804.000,1823.000,1785.000
1797.000,1822.000,1823.000
1826.000,1826.000,1809.000
1858.000,1843.000,1846.000
1832.000,1861.000,1819.000
1878.000,1838.000,1815.000
1871.000,1869.000,1842.000
1865.000,1896.000,1862.000
1873.000,1922.000,1880.000
1902.000,1965.000,1904.000
1936.000,1959.000,1919.000
1976.000,1988.000,1962.000
2005.000,2066.000,2000.000
2082.000,2093.000,2062.000
2129.000,2176.000,2132.000
2222.000,2284.000,2206.000
2315.000,2329.000,2302.000
2403.000,2500.000,2436.000
2522.000,2617.000,2541.000
2634.000,2769.000,2632.000
2789.000,2874.000,2825.000
2842.000,2980.000,2848.000
2912.000,3044.000,2955.000
2987.000,3076.000,2941.000
2992.000,3050.000,2981.000
3001.000,3094.000,3014.000
3027.000,3135.000,3037.000
2965.000,3052.000,2977.000
3007.000,3106.000,3008.000
2965.000,2975.000,2920.000
2937.000,2974.000,2919.000
2936.000,3014.000,2905.000
2965.000,3031.000,2960.000
3082.000,3091.000,3100.000
3185.000,3257.000,3193.000
3382.000,3415.000,3348.000
3730.000,3765.000,3707.000
4265.000,4411.000,4327.000
5445.000,5532.000,5508.000
8288.000,8266.000,8719.000
17045.000,17054.000,18073.000
61960.000,61934.000,62009.000
62255.000,62254.000,62248.000
62176.000,62183.000,62174.000
62108.000,62112.000,62106.000
62120.000,62124.000,62123.000
62120.000,62120.000,62119.000
62094.000,62098.000,62091.000
62089.000,62093.000,62091.000
62095.000,62094.000,62097.000
62087.000,62091.000,62093.000
62081.000,62082.000,62078.000
62090.000,62084.000,62086.000
62088.000,62088.000,62085.000
62085.000,62085.000,62083.000
62082.000,62080.000,62079.000
62083.000,62081.000,62081.000
62075.000,62078.000,62079.000
62078.000,62080.000,62081.000
62078.000,62081.000,62079.000
62078.000,62080.000,62079.000
62077.000,62080.000,62080.000
62074.000,62077.000,62076.000
62075.000,62078.000,62081.000
62080.000,62079.000,62078.000
62079.000,62079.000,62078.000
62073.000,62077.000,62074.000
62079.000,62080.000,62080.000
62076.000,62082.000,62084.000
62078.000,62072.000,62078.000
62080.000,62076.000,62073.000
62076.000,62073.000,62077.000
62077.000,62078.000,62079.000
62080.000,62080.000,62082.000
62075.000,62079.000,62074.000
62074.000,62082.000,62076.000
62075.000,62074.000,62072.000
62079.000,62075.000,62078.000
62078.000,62075.000,62077.000
62070.000,62078.000,62079.000
62079.000,62076.000,62075.000
62079.000,62074.000,62075.000
62077.000,62081.000,62078.000
62076.000,62078.000,62079.000
62075.000,62076.000,62073.000
62081.000,62077.000,62072.000
62074.000,62077.000,62077.000
62076.000,62076.000,62078.000
62078.000,62076.000,62080.000
62072.000,62074.000,62081.000
62082.000,62081.000,62086.000
62077.000,62085.000,62079.000
62080.000,62086.000,62085.000
62100.000,62104.000,62101.000
62117.000,62043.000,62091.000
2483.000,1690.000,1741.000
1558.000,1564.000,1574.000
1549.000,1540.000,1529.000
1525.000,1536.000,1542.000
1534.000,1528.000,1523.000
1502.000,1499.000,1489.000
1490.000,1504.000,1495.000
1476.000,1467.000,1489.000
1471.000,1467.000,1478.000
1467.000,1472.000,1466.000
1455.000,1459.000,1466.000
1462.000,1451.000,1449.000
1459.000,1431.000,1462.000
1445.000,1452.000,1440.000
1425.000,1454.000,1433.000
1425.000,1428.000,1418.000
1436.000,1425.000,1428.000
1423.000,1424.000,1434.000
1412.000,1416.000,1416.000
1406.000,1402.000,1416.000
1415.000,1401.000,1415.000
1405.000,1391.000,1417.000
1401.000,1392.000,1417.000
1405.000,1402.000,1400.000
1401.000,1416.000,1395.000
1394.000,1398.000,1412.000
1394.000,1402.000,1402.000
1407.000,1400.000,1399.000
1378.000,1383.000,1395.000
1398.000,1375.000,1381.000
1381.000,1381.000,1379.000
1362.000,1365.000,1374.000
1385.000,1374.000,1369.000
1379.000,1366.000,1375.000
1375.000,1358.000,1373.000
1364.000,1371.000,1364.000
1360.000,1360.000,1373.000
1349.000,1360.000,1347.000
1359.000,1346.000,1355.000
1356.000,1351.000,1351.000
1358.000,1348.000,1356.000
1355.000,1342.000,1346.000
1336.000,1348.000,1345.000
1337.000,1350.000,1340.000
1342.000,1332.000,1345.000
1350.000,1341.000,1337.000
1343.000,1331.000,1344.000
1334.000,1335.000,1335.000
1336.000,1341.000,1338.000
1334.000,1346.000,1336.000
1340.000,1328.000,1332.000
1323.000,1331.000,1332.000
1331.000,1327.000,1327.000
1327.000,1331.000,1334.000
1323.000,1329.000,1320.000
1330.000,1325.000,1314.000
1329.000,1318.000,1324.000
1323.000,1318.000,1324.000
1316.000,1322.000,1323.000
1318.000,1306.000,1324.000
1323.000,1327.000,1328.000
1315.000,1324.000,1328.000
1327.000,1309.000,1312.000
1315.000,1318.000,1324.000
1312.000,1323.000,1324.000
1325.000,1308.000,1319.000
1316.000,1315.000,1321.000
1312.000,1316.000,1309.000
1313.000,1320.000,1307.000
1317.000,1317.000,1319.000
1305.000,1318.000,1307.000
1304.000,1305.000,1311.000
1302.000,1309.000,1301.000
1306.000,1304.000,1307.000
1300.000,1303.000,1307.000
1298.000,1304.000,1309.000
1309.000,1299.000,1305.000
1306.000,1304.000,1310.000
1295.000,1305.000,1297.000
1302.000,1302.000,1310.000
1301.000,1303.000,1305.000
1291.000,1295.000,1298.000
1297.000,1302.000,1292.000
1305.000,1288.000,1303.000
1296.000,1302.000,1303.000
1303.000,1289.000,1299.000
1305.000,1300.000,1293.000
1290.000,1296.000,1302.000
1304.000,1294.000,1286.000
1299.000,1295.000,1290.000
1289.000,1294.000,1299.000
1302.000,1299.000,1309.000
1293.000,1301.000,1285.000
1291.000,1292.000,1293.000
1294.000,1304.000,1298.000
1297.000,1301.000,1289.000
1292.000,1290.000,1295.000
1302.000,1299.000,1305.000
1292.000,1290.000,1294.000
1302.000,1299.000,1298.000
1301.000,1301.000,1300.000
1299.000,1303.000,1302.000
1293.000,1311.000,1298.000
1297.000,1294.000,1300.000
1302.000,1302.000,1303.000
1299.000,1305.000,1309.000
1304.000,1311.000,1300.000
1316.000,1311.000,1306.000
1315.000,1316.000,1311.000
1326.000,1325.000,1314.000
1321.000,1334.000,1311.000
1334.000,1329.000,1325.000
1337.000,1344.000,1344.000
1351.000,1341.000,1341.000
1351.000,1355.000,1350.000
1375.000,1371.000,1364.000
1386.000,1372.000,1384.000
1399.000,1391.000,1389.000
1416.000,1406.000,1407.000
1435.000,1436.000,1439.000
1482.000,1471.000,1464.000
1507.000,1497.000,1494.000
1526.000,1532.000,1550.000
1576.000,1571.000,1553.000
1639.000,1614.000,1624.000
1688.000,1696.000,1665.000
1750.000,1740.000,1721.000
1850.000,1839.000,1828.000
1950.000,1925.000,1882.000
2024.000,1998.000,2024.000
2166.000,2120.000,2134.000
2347.000,2306.000,2296.000
2544.000,2489.000,2471.000
2711.000,2717.000,2693.000
3035.000,2927.000,2932.000
3276.000,3228.000,3150.000
3594.000,3509.000,3490.000
3917.000,3836.000,3800.000
4239.000,4197.000,4204.000
4653.000,4557.000,4608.000
5058.000,5046.000,4972.000
5482.000,5314.000,5328.000
5931.000,5804.000,5864.000
6387.000,6227.000,6161.000
6769.000,6656.000,6609.000
7045.000,6968.000,6947.000
7395.000,7204.000,7191.000
7721.000,7554.000,7434.000
7916.000,7714.000,7711.000
8088.000,7975.000,7900.000
8267.000,7971.000,7971.000
8299.000,8149.000,8082.000
8259.000,8141.000,8147.000
8439.000,8346.000,8172.000
8396.000,8286.000,8144.000
8500.000,8316.000,8254.000
8524.000,8249.000,8364.000
8430.000,8320.000,8237.000
8493.000,8335.000,8215.000
8485.000,8370.000,8207.000
8465.000,8355.000,8290.000
8480.000,8271.000,8157.000
8428.000,8257.000,8275.000
8413.000,8243.000,8259.000
8488.000,8206.000,8280.000
8440.000,8273.000,8269.000
8451.000,8296.000,8249.000
8521.000,8266.000,8265.000
8396.000,8263.000,8331.000
8450.000,8240.000,8234.000
8527.000,8316.000,8389.000
8527.000,8340.000,8379.000
8524.000,8270.000,8284.000
8459.000,8325.000,8291.000
8435.000,8268.000,8146.000
8485.000,8261.000,8262.000
8456.000,8400.000,8323.000
8535.000,8400.000,8321.000
8463.000,8319.000,8262.000
8456.000,8257.000,8255.000
8506.000,8297.000,8310.000
8422.000,8254.000,8286.000
8530.000,8305.000,8302.000
8586.000,8298.000,8251.000
8448.000,8376.000,8255.000
8499.000,8297.000,8284.000
8492.000,8323.000,8320.000
8547.000,8266.000,8313.000
8492.000,8372.000,8261.000
8491.000,8249.000,8240.000
8520.000,8359.000,8219.000
8506.000,8430.000,8267.000
8547.000,8276.000,8328.000
8452.000,8453.000,8386.000
8572.000,8418.000,8398.000
8579.000,8419.000,8322.000
8604.000,8313.000,8403.000
8609.000,8272.000,8333.000
8730.000,8400.000,8427.000
8627.000,8427.000,8454.000
8600.000,8468.000,8390.000
8740.000,8490.000,8430.000
8781.000,8557.000,8499.000
8739.000,8550.000,8512.000
8738.000,8554.000,8522.000
8749.000,8601.000,8511.000
8716.000,8584.000,8558.000
8758.000,8604.000,8662.000
8795.000,8492.000,8577.000
8803.000,8596.000,8630.000
8801.000,8523.000,8562.000
8781.000,8641.000,8593.000
8851.000,8533.000,8557.000
8856.000,8524.000,8612.000
8857.000,8568.000,8578.000
8855.000,8646.000,8667.000
8901.000,8609.000,8627.000
8937.000,8644.000,8690.000
8853.000,8678.000,8677.000
8962.000,8705.000,8651.000
8816.000,8723.000,8672.000
8933.000,8756.000,8702.000
8914.000,8703.000,8744.000
8838.000,8601.000,8694.000
8865.000,8625.000,8626.000
8875.000,8714.000,8673.000
8848.000,8644.000,8635.000
8961.000,8671.000,8767.000
8903.000,8674.000,8588.000
8912.000,8724.000,8645.000
8924.000,8661.000,8584.000
8903.000,8753.000,8661.000
8919.000,8733.000,8627.000
8937.000,8730.000,8682.000
8973.000,8819.000,8741.000
8913.000,8793.000,8764.000
8910.000,8693.000,8564.000
8892.000,8748.000,8645.000
8993.000,8771.000,8686.000
8916.000,8840.000,8642.000
8960.000,8637.000,8727.000
8941.000,8726.000,8699.000
8967.000,8802.000,8695.000
9043.000,8790.000,8669.000
8891.000,8785.000,8759.000
8975.000,8793.000,8783.000
9054.000,8853.000,8703.000
9066.000,8881.000,8815.000
9009.000,8859.000,8761.000
9062.000,8851.000,8872.000
8995.000,8872.000,8832.000
9025.000,8886.000,8871.000
9008.000,8986.000,8865.000
9114.000,8931.000,8935.000
9151.000,8961.000,8922.000
9287.000,9061.000,8857.000
9118.000,9000.000,8999.000
9274.000,9031.000,8949.000
9217.000,8971.000,9057.000
9211.000,8935.000,8904.000
9142.000,9035.000,8967.000
9100.000,8951.000,8935.000
9276.000,8973.000,8970.000
9264.000,8999.000,8979.000
9198.000,8969.000,8839.000
9208.000,9054.000,9027.000
9157.000,9098.000,9006.000
9135.000,8993.000,8972.000
9264.000,8993.000,9000.000
9203.000,9071.000,9011.000
9242.000,9001.000,8938.000
9220.000,9098.000,8924.000
9304.000,9006.000,8988.000
9234.000,9102.000,9054.000
9307.000,9067.000,8978.000
9308.000,9032.000,8950.000
9252.000,9007.000,8906.000
9198.000,8986.000,9068.000
9193.000,8925.000,8990.000
9230.000,9084.000,9019.000
9124.000,8975.000,8972.000
9294.000,9088.000,8999.000
9145.000,9029.000,8930.000
9277.000,9078.000,8916.000
9184.000,9059.000,9010.000
9309.000,9019.000,9058.000
9363.000,9093.000,8964.000
9128.000,9051.000,9027.000
9167.000,8992.000,9079.000
9210.000,9056.000,9029.000
9133.000,9036.000,8987.000
9203.000,9102.000,8946.000
9232.000,9059.000,8994.000
9276.000,9085.000,9059.000
9265.000,9030.000,9002.000
9287.000,8986.000,9034.000
9208.000,9028.000,8946.000
9270.000,9101.000,9172.000
9288.000,8958.000,9081.000
9247.000,9056.000,9100.000
9351.000,9033.000,9066.000
9294.000,9154.000,9094.000
9284.000,9149.000,9095.000
9283.000,9131.000,9041.000
9325.000,9099.000,9057.000
9362.000,9086.000,9075.000
9379.000,9136.000,9148.000
9355.000,9206.000,9149.000
9298.000,9078.000,9137.000
9392.000,9110.000,9008.000
9293.000,9054.000,9020.000
9347.000,9136.000,9065.000
9435.000,9226.000,9130.000
9387.000,9152.000,9073.000
9361.000,9198.000,9142.000
9451.000,9251.000,9237.000
9378.000,9214.000,9152.000
9422.000,9200.000,9195.000
9431.000,9230.000,9237.000
9383.000,9189.000,9225.000
9493.000,9305.000,9219.000
9436.000,9178.000,9203.000
9480.000,9301.000,9268.000
9426.000,9223.000,9232.000
9450.000,9328.000,9222.000
9380.000,9228.000,9340.000
9466.000,9254.000,9258.000
9521.000,9335.000,9253.000
9329.000,9260.000,9269.000
9375.000,9371.000,9228.000
9303.000,9180.000,9182.000
9406.000,9182.000,9275.000
9282.000,9220.000,9123.000
9294.000,9161.000,9093.000
9271.000,9198.000,9109.000
9371.000,9154.000,9155.000
9285.000,9108.000,9066.000
9308.000,9187.000,9145.000
9266.000,9059.000,9049.000
9203.000,9038.000,8969.000
9168.000,9072.000,8970.000
9108.000,8996.000,8956.000
9235.000,9007.000,9012.000
9287.000,8994.000,9027.000
9194.000,8920.000,8988.000
9083.000,9032.000,8939.000
9140.000,8924.000,8966.000
9148.000,8923.000,9019.000
9175.000,8948.000,8902.000
9206.000,8864.000,8948.000
9200.000,8976.000,8840.000
9196.000,8951.000,8971.000
9089.000,8971.000,8930.000
9168.000,8972.000,8976.000
9149.000,8977.000,8949.000
9211.000,8855.000,8990.000
8992.000,8901.000,8856.000
9102.000,8878.000,8828.000
9117.000,8903.000,8786.000
9122.000,8980.000,8871.000
9034.000,8866.000,8913.000
9046.000,8883.000,8819.000
9091.000,8898.000,8779.000
9004.000,8876.000,8875.000
9053.000,8868.000,8766.000
8958.000,8875.000,8837.000
9027.000,8886.000,8764.000
9025.000,8787.000,8794.000
8985.000,8874.000,8807.000
9048.000,8783.000,8823.000
9061.000,8778.000,8823.000
9050.000,8771.000,8858.000
8993.000,8908.000,8830.000
9079.000,8937.000,8888.000
9050.000,8842.000,8795.000
9076.000,8915.000,8809.000
9153.000,8935.000,8916.000
9085.000,8942.000,8898.000
9128.000,8899.000,8911.000
9124.000,8908.000,8839.000
9126.000,9021.000,8856.000
9174.000,8964.000,8880.000
9053.000,8900.000,8894.000
9169.000,8955.000,8909.000
9083.000,9019.000,8884.000
9051.000,8926.000,9003.000
9069.000,9018.000,8992.000
9190.000,8987.000,8912.000
9122.000,9010.000,8967.000
9218.000,9025.000,8892.000
9142.000,9004.000,8969.000
9271.000,9132.000,8984.000
9278.000,9021.000,9123.000
9233.000,8969.000,9088.000
9338.000,8991.000,8981.000
9186.000,9072.000,8986.000
9172.000,9063.000,9042.000
9255.000,8955.000,9004.000
9199.000,9120.000,8963.000
9245.000,9022.000,8950.000
9209.000,9032.000,8996.000
9111.000,9033.000,8950.000
9250.000,8975.000,8961.000
9108.000,8960.000,8905.000
9165.000,9040.000,8969.000
9275.000,8973.000,9035.000
9232.000,9039.000,9035.000
9165.000,9041.000,9033.000
9350.000,9081.000,9118.000
9279.000,9101.000,8977.000
9276.000,9066.000,9087.000
9230.000,8991.000,9014.000
9289.000,9130.000,8976.000
9211.000,9069.000,9029.000
9240.000,9015.000,8988.000
9246.000,9076.000,8983.000
9116.000,8969.000,8866.000
9207.000,9013.000,8993.000
9092.000,8936.000,8985.000
9123.000,9259.000,8889.000
9151.000,9224.000,8870.000
8963.000,9294.000,8808.000
9118.000,9154.000,8795.000
9076.000,8962.000,8793.000
9013.000,8895.000,8807.000
9034.000,8884.000,8831.000
9101.000,8838.000,8865.000
9015.000,8905.000,8759.000
8992.000,8805.000,8795.000
9147.000,8942.000,8901.000
8967.000,8840.000,8811.000
8995.000,8814.000,8729.000
9028.000,8844.000,8775.000
8977.000,8876.000,8837.000
8918.000,8739.000,8754.000
8851.000,8716.000,8679.000
9079.000,8774.000,8745.000
8985.000,8736.000,8791.000
8966.000,8861.000,8840.000
9019.000,8722.000,8826.000
9028.000,8808.000,8708.000
8945.000,8788.000,8765.000
8995.000,8850.000,8839.000
9030.000,8808.000,8762.000
8974.000,8838.000,8808.000
8998.000,8881.000,8825.000
8973.000,8903.000,8884.000
8956.000,8904.000,8800.000
9042.000,8779.000,8859.000
9012.000,8802.000,8840.000
9034.000,8794.000,8738.000
9001.000,8733.000,8707.000
8946.000,8775.000,8718.000
8871.000,8707.000,8675.000
8931.000,8697.000,8747.000
8917.000,8800.000,8615.000
8922.000,8761.000,8746.000
8875.000,8669.000,8760.000
8908.000,8732.000,8719.000
8962.000,8766.000,8744.000
8858.000,8767.000,8682.000
8948.000,8804.000,8786.000
9016.000,8919.000,8789.000
8988.000,8755.000,8762.000
8995.000,8804.000,8839.000
9023.000,8838.000,8810.000
8994.000,8786.000,8843.000
9030.000,8806.000,8790.000
8948.000,8901.000,8706.000
8966.000,8816.000,8670.000
8921.000,8869.000,8863.000
9028.000,8874.000,8799.000
8970.000,8763.000,8775.000
8923.000,8825.000,8759.000
8903.000,8753.000,8733.000
9044.000,8754.000,8796.000
9009.000,8760.000,8798.000
8969.000,8819.000,8718.000
8926.000,8878.000,8738.000
8947.000,8761.000,8771.000
8937.000,8788.000,8820.000
8983.000,8795.000,8789.000
9031.000,8804.000,8812.000
8994.000,8691.000,8797.000
8945.000,8854.000,8764.000
9117.000,8901.000,8665.000
8934.000,8741.000,8791.000
8950.000,8828.000,8751.000
9000.000,8800.000,8795.000
9038.000,8823.000,8695.000
8955.000,8818.000,8807.000
9006.000,8788.000,8716.000
9048.000,8775.000,8769.000
8966.000,8782.000,8772.000
8887.000,8729.000,8894.000
8940.000,8700.000,8716.000
8966.000,8784.000,8766.000
8987.000,8776.000,8697.000
8985.000,8758.000,8771.000
8983.000,8869.000,8831.000
9003.000,8803.000,8700.000
8922.000,8900.000,8784.000
9043.000,8860.000,8846.000
9019.000,8860.000,8893.000
8973.000,8885.000,8719.000
9022.000,8864.000,8752.000
9061.000,8796.000,8806.000
9130.000,8835.000,8906.000
8957.000,8830.000,8848.000
9154.000,8850.000,8813.000
8976.000,8803.000,8859.000
9037.000,8867.000,8802.000
9108.000,8879.000,8820.000
9165.000,8842.000,8778.000
9065.000,8935.000,8777.000
9038.000,8832.000,8757.000
9009.000,8838.000,8780.000
9069.000,8825.000,8754.000
9010.000,8882.000,8781.000
8975.000,8810.000,8820.000
9000.000,8852.000,8713.000
8881.000,8823.000,8776.000
8963.000,8798.000,8771.000
8997.000,8751.000,8812.000
9003.000,8823.000,8818.000
9031.000,8777.000,8778.000
8979.000,8785.000,8738.000
8923.000,8801.000,8700.000
8937.000,8802.000,8744.000
8992.000,8807.000,8809.000
8996.000,8776.000,8862.000
9018.000,8685.000,8741.000
8982.000,8738.000,8816.000
9061.000,8816.000,8752.000
9020.000,8831.000,8793.000
8943.000,8811.000,8761.000
8956.000,8798.000,8801.000
9073.000,8768.000,8711.000
9021.000,8810.000,8791.000
9006.000,8704.000,8722.000
9016.000,8713.000,8786.000
9090.000,8791.000,8715.000
8900.000,8785.000,8678.000
8984.000,8758.000,8918.000
9022.000,8871.000,8666.000
8931.000,8764.000,8702.000
8916.000,8779.000,8801.000
8957.000,8759.000,8753.000
8974.000,8829.000,8704.000
9012.000,8723.000,8717.000
8909.000,8744.000,8759.000
8889.000,8761.000,8661.000
8898.000,8821.000,8642.000
9009.000,8776.000,8803.000
8970.000,8797.000,8717.000
8852.000,8798.000,8705.000
8872.000,8715.000,8714.000
8902.000,8716.000,8677.000
8981.000,8829.000,8633.000
8887.000,8708.000,8642.000
8893.000,8688.000,8670.000
8947.000,8720.000,8680.000
8983.000,8755.000,8625.000
8934.000,8680.000,8611.000
8903.000,8630.000,8706.000
8933.000,8699.000,8667.000
8898.000,8682.000,8716.000
8883.000,8713.000,8692.000
8977.000,8750.000,8809.000
9006.000,8792.000,8841.000
9019.000,8781.000,8729.000
9083.000,8842.000,8725.000
9084.000,8891.000,8768.000
8941.000,8749.000,8772.000
9013.000,8835.000,8753.000
8932.000,8720.000,8801.000
9109.000,8803.000,8796.000
8921.000,8736.000,8691.000
8898.000,8752.000,8600.000
8906.000,8765.000,8694.000
8877.000,8708.000,8663.000
8893.000,8685.000,8750.000
8895.000,8723.000,8648.000
8884.000,8776.000,8738.000
8904.000,8739.000,8690.000
8848.000,8764.000,8782.000
8990.000,8804.000,8729.000
8845.000,8713.000,8653.000
8999.000,8748.000,8673.000
8901.000,8719.000,8642.000
8927.000,8715.000,8748.000
8971.000,8731.000,8661.000
8960.000,8805.000,8708.000
9015.000,8723.000,8702.000
8989.000,8795.000,8644.000
8986.000,8727.000,8685.000
8986.000,8878.000,8783.000
9110.000,8856.000,8781.000
9064.000,8861.000,8781.000
9012.000,8867.000,8786.000
9059.000,8911.000,8900.000
8984.000,8830.000,8807.000
8996.000,8872.000,8808.000
9118.000,8944.000,8832.000
9069.000,8893.000,8888.000
9115.000,8899.000,8821.000
9043.000,8893.000,8815.000
9219.000,8907.000,9044.000
9085.000,8948.000,8931.000
9294.000,8987.000,9072.000
9235.000,8951.000,8916.000
9139.000,8972.000,8916.000
9240.000,9035.000,8943.000
9212.000,9042.000,8922.000
9216.000,8932.000,8884.000
9062.000,8909.000,8948.000
9074.000,8910.000,8975.000
9087.000,8907.000,8771.000
9203.000,8920.000,8916.000
9163.000,8933.000,8911.000
9139.000,9031.000,8887.000
9279.000,8935.000,8965.000
9100.000,8951.000,8862.000
9193.000,8981.000,8888.000
9152.000,9032.000,8859.000
9183.000,8888.000,8916.000
9230.000,8858.000,8845.000
9143.000,8982.000,8915.000
9267.000,8967.000,8915.000
9103.000,8942.000,8880.000
9251.000,8856.000,8975.000
9136.000,8890.000,8907.000
9126.000,8904.000,8818.000
9074.000,8897.000,8891.000
9135.000,8913.000,8758.000
9065.000,8843.000,8789.000
9065.000,8806.000,8740.000
9137.000,8803.000,8872.000
9078.000,8863.000,8847.000
8903.000,8754.000,8715.000
9054.000,8968.000,8676.000
8950.000,8834.000,8860.000
9037.000,8887.000,8797.000
9071.000,8777.000,8657.000
9084.000,8831.000,8771.000
8991.000,8835.000,8711.000
8958.000,8767.000,8717.000
9058.000,8678.000,8686.000
8964.000,8723.000,8722.000
8995.000,8829.000,8746.000
9009.000,8847.000,8724.000
8983.000,8771.000,8782.000
8995.000,8791.000,8736.000
9023.000,8709.000,8670.000
9044.000,8804.000,8751.000
8976.000,8675.000,8717.000
8865.000,8731.000,8656.000
8957.000,8664.000,8700.000
8878.000,8704.000,8717.000
8825.000,8621.000,8611.000
8941.000,8721.000,8637.000
8826.000,8576.000,8694.000
8912.000,8664.000,8614.000
8817.000,8654.000,8585.000
8784.000,8604.000,8673.000
8895.000,8702.000,8574.000
8849.000,8715.000,8676.000
8849.000,8626.000,8712.000
8853.000,8677.000,8590.000
8737.000,8705.000,8688.000
8788.000,8575.000,8675.000
8814.000,8787.000,8642.000
8871.000,8592.000,8699.000
8823.000,8619.000,8584.000
8842.000,8679.000,8560.000
8839.000,8625.000,8647.000
8871.000,8642.000,8612.000
8800.000,8620.000,8741.000
8858.000,8706.000,8616.000
8929.000,8777.000,8655.000
8884.000,8666.000,8693.000
8896.000,8713.000,8643.000
8810.000,8655.000,8645.000
8877.000,8609.000,8595.000
8793.000,8552.000,8604.000
8935.000,8602.000,8578.000
8945.000,8736.000,8635.000
8829.000,8675.000,8592.000
8766.000,8648.000,8588.000
8870.000,8629.000,8618.000
8813.000,8689.000,8684.000
8953.000,8707.000,8677.000
8874.000,8676.000,8647.000
8972.000,8715.000,8758.000
8951.000,8719.000,8722.000
9048.000,8783.000,8695.000
8942.000,8690.000,8707.000
9049.000,8747.000,8630.000
8939.000,8912.000,8716.000
9005.000,8750.000,8824.000
9125.000,8788.000,8728.000
9017.000,8693.000,8722.000
8915.000,8703.000,8674.000
8902.000,8740.000,8668.000
9045.000,8637.000,8736.000
8898.000,8672.000,8698.000
8920.000,8699.000,8662.000
8918.000,8682.000,8614.000
8911.000,8677.000,8795.000
9007.000,8731.000,8623.000
8888.000,8706.000,8577.000
8901.000,8666.000,8702.000
9008.000,8798.000,8698.000
9044.000,8768.000,8671.000
9064.000,8815.000,8656.000
9121.000,8691.000,8715.000
9015.000,8768.000,8729.000
9036.000,8750.000,8629.000
9005.000,8815.000,8784.000
9040.000,8790.000,8732.000
9137.000,8787.000,8781.000
8992.000,8795.000,8713.000
9084.000,8847.000,8754.000
8985.000,8762.000,8669.000
9071.000,8785.000,8718.000
9043.000,8658.000,8789.000
8947.000,8611.000,8715.000
8988.000,8765.000,8698.000
8948.000,8671.000,8655.000
8803.000,8662.000,8563.000
8866.000,8592.000,8594.000
8787.000,8641.000,8528.000
8784.000,8601.000,8480.000
8803.000,8515.000,8415.000
8826.000,8554.000,8607.000
8801.000,8581.000,8529.000
8805.000,8455.000,8417.000
8636.000,8511.000,8497.000
8683.000,8543.000,8421.000
8728.000,8418.000,8493.000
8754.000,8413.000,8427.000
8589.000,8389.000,8412.000
8699.000,8357.000,8352.000
8688.000,8334.000,8460.000
8677.000,8461.000,8351.000
8701.000,8437.000,8376.000
8631.000,8408.000,8366.000
8629.000,8379.000,8380.000
8595.000,8451.000,8439.000
8591.000,8399.000,8418.000
8688.000,8368.000,8385.000
8731.000,8437.000,8446.000
8680.000,8396.000,8455.000
8718.000,8497.000,8427.000
8866.000,8547.000,8481.000
8936.000,8651.000,8617.000
8818.000,8703.000,8657.000
9019.000,8674.000,8675.000
9017.000,8689.000,8772.000
9142.000,8746.000,8751.000
9135.000,8804.000,8799.000
9212.000,8815.000,8862.000
9251.000,8833.000,8912.000
9265.000,8876.000,8859.000
9194.000,8762.000,8849.000
9270.000,8712.000,8814.000
9266.000,8816.000,8809.000
9241.000,8774.000,8917.000
9101.000,8719.000,8817.000
8991.000,8686.000,8656.000
8911.000,8575.000,8603.000
8849.000,8533.000,8587.000
8641.000,8503.000,8436.000
8801.000,8346.000,8433.000
8691.000,8369.000,8399.000
8637.000,8338.000,8437.000
8751.000,8417.000,8338.000
8581.000,8478.000,8322.000
8590.000,8338.000,8284.000
8663.000,8311.000,8293.000
8595.000,8433.000,8367.000
8504.000,8403.000,8334.000
8637.000,8405.000,8257.000
8442.000,8311.000,8284.000
8558.000,8335.000,8343.000
8419.000,8293.000,8289.000
8551.000,8275.000,8128.000
8408.000,8287.000,8199.000
8495.000,8175.000,8183.000
8428.000,8171.000,8198.000
8421.000,8149.000,8073.000
8316.000,8316.000,8149.000
8304.000,8180.000,8228.000
8329.000,8165.000,8094.000
8274.000,8072.000,8164.000
8349.000,8159.000,8095.000
8322.000,8154.000,8109.000
8259.000,8054.000,8154.000
8268.000,8098.000,8059.000
8333.000,8025.000,8044.000
8052.000,7992.000,8085.000
8129.000,8040.000,7945.000
8217.000,8057.000,7951.000
8137.000,8050.000,7981.000
8132.000,7888.000,7887.000
8181.000,8025.000,7889.000
8044.000,7923.000,7875.000
8074.000,7981.000,7953.000
8194.000,7969.000,8032.000
8141.000,7925.000,7974.000
8097.000,8040.000,7934.000
8203.000,7952.000,7957.000
8197.000,7998.000,7959.000
8079.000,7972.000,7843.000
8136.000,8061.000,7916.000
8224.000,8015.000,7936.000
8135.000,7940.000,7869.000
8033.000,7923.000,7946.000
8117.000,8023.000,7961.000
8017.000,7990.000,7929.000
8052.000,7938.000,7916.000
8053.000,7862.000,7852.000
8080.000,7882.000,7939.000
8107.000,7941.000,7845.000
8062.000,7868.000,7827.000
8076.000,7947.000,7769.000
8020.000,7906.000,7744.000
7984.000,7760.000,7734.000
8001.000,7796.000,7726.000
7960.000,7852.000,7736.000
7938.000,7809.000,7774.000
7906.000,7756.000,7615.000
7860.000,7769.000,7625.000
7955.000,7744.000,7787.000
7903.000,7698.000,7698.000
7877.000,7693.000,7641.000
7925.000,7700.000,7621.000
7916.000,7730.000,7658.000
7911.000,7711.000,7673.000
7943.000,7726.000,7637.000
7962.000,7745.000,7656.000
7949.000,7681.000,7674.000
7876.000,7667.000,7699.000
7821.000,7662.000,7639.000
7871.000,7586.000,7561.000
7824.000,7657.000,7602.000
7731.000,7611.000,7541.000
7878.000,7686.000,7572.000
7698.000,7611.000,7593.000
7667.000,7623.000,7638.000
7668.000,7569.000,7553.000
7735.000,7567.000,7549.000
7719.000,7515.000,7485.000
7614.000,7549.000,7454.000
7682.000,7482.000,7545.000
7521.000,7486.000,7401.000
7690.000,7489.000,7413.000
7626.000,7406.000,7425.000
7640.000,7415.000,7419.000
7551.000,7497.000,7450.000
7566.000,7311.000,7394.000
7644.000,7367.000,7347.000
7530.000,7333.000,7348.000
7504.000,7306.000,7381.000
7527.000,7485.000,7424.000
7577.000,7391.000,7449.000
7590.000,7436.000,7379.000
7694.000,7443.000,7374.000
7631.000,7463.000,7447.000
7732.000,7542.000,7500.000
7695.000,7524.000,7444.000
7653.000,7460.000,7365.000
7696.000,7455.000,7338.000
7671.000,7465.000,7359.000
7580.000,7441.000,7378.000
7571.000,7421.000,7424.000
7595.000,7392.000,7464.000
7523.000,7345.000,7325.000
7555.000,7343.000,7251.000
7604.000,7319.000,7434.000
7573.000,7408.000,7384.000
7568.000,7366.000,7374.000
7577.000,7450.000,7358.000
7642.000,7312.000,7312.000
7527.000,7252.000,7264.000
7556.000,7315.000,7333.000
7616.000,7348.000,7339.000
7606.000,7290.000,7340.000
7644.000,7317.000,7381.000
7627.000,7205.000,7340.000
7626.000,7243.000,7300.000
7569.000,7295.000,7211.000
7574.000,7210.000,7351.000
7533.000,7311.000,7373.000
7584.000,7388.000,7256.000
7688.000,7345.000,7408.000
7747.000,7431.000,7592.000
7886.000,7528.000,7609.000
8023.000,7650.000,7613.000
8102.000,7750.000,7810.000
8221.000,7762.000,7908.000
8250.000,7778.000,7899.000
8303.000,7791.000,7951.000
8398.000,7777.000,7916.000
8319.000,7755.000,7812.000
8231.000,7687.000,7716.000
8131.000,7599.000,7651.000
7959.000,7553.000,7526.000
7856.000,7484.000,7365.000
7844.000,7273.000,7340.000
7657.000,7197.000,7310.000
7504.000,7115.000,7173.000
7449.000,7108.000,7081.000
7328.000,7056.000,7112.000
7252.000,6961.000,7061.000
7249.000,7002.000,7055.000
7235.000,6967.000,6972.000
7263.000,6958.000,7016.000
7202.000,6920.000,6974.000
7178.000,6963.000,6976.000
7141.000,6896.000,6923.000
7155.000,6859.000,6991.000
7145.000,6967.000,6945.000
7259.000,7003.000,6893.000
7218.000,6948.000,7048.000
7182.000,6986.000,7054.000
7274.000,6926.000,7004.000
7325.000,7087.000,7063.000
7417.000,7078.000,7152.000
7477.000,7056.000,7203.000
7603.000,7195.000,7206.000
7532.000,7266.000,7208.000
7488.000,7285.000,7361.000
7619.000,7269.000,7362.000
7757.000,7394.000,7480.000
7904.000,7492.000,7537.000
7902.000,7507.000,7542.000
7849.000,7555.000,7480.000
8082.000,7557.000,7569.000
8053.000,7519.000,7611.000
8027.000,7573.000,7699.000
7979.000,7464.000,7558.000
7917.000,7512.000,7507.000
7857.000,7468.000,7419.000
7805.000,7401.000,7432.000
7863.000,7241.000,7301.000
7623.000,7162.000,7298.000
7375.000,7134.000,7157.000
7346.000,6997.000,7046.000
7245.000,6927.000,7032.000
7148.000,6901.000,6912.000
7070.000,6741.000,6863.000
7022.000,6758.000,6792.000
6911.000,6724.000,6654.000
6876.000,6672.000,6631.000
6769.000,6631.000,6643.000
6722.000,6593.000,6569.000
6768.000,6571.000,6552.000
6692.000,6554.000,6598.000
6769.000,6557.000,6551.000
6807.000,6647.000,6484.000
6787.000,6605.000,6532.000
6787.000,6680.000,6592.000
6758.000,6598.000,6540.000
6740.000,6654.000,6585.000
6784.000,6586.000,6530.000
6731.000,6555.000,6543.000
6636.000,6591.000,6400.000
6731.000,6459.000,6461.000
6672.000,6496.000,6432.000
6563.000,6411.000,6503.000
6655.000,6512.000,6505.000
6579.000,6506.000,6409.000
6634.000,6524.000,6496.000
6590.000,6509.000,6470.000
6662.000,6568.000,6507.000
6627.000,6556.000,6469.000
6621.000,6528.000,6519.000
6688.000,6500.000,6491.000
6635.000,6550.000,6544.000
6600.000,6505.000,6531.000
6724.000,6472.000,6616.000
6645.000,6504.000,6527.000
6606.000,6545.000,6490.000
6630.000,6480.000,6360.000
6619.000,6374.000,6468.000
6600.000,6480.000,6458.000
6609.000,6504.000,6518.000
6665.000,6573.000,6437.000
6673.000,6513.000,6513.000
6733.000,6659.000,6571.000
6804.000,6647.000,6590.000
6761.000,6569.000,6613.000
6785.000,6595.000,6668.000
6841.000,6663.000,6693.000
6910.000,6606.000,6745.000
6804.000,6697.000,6611.000
6795.000,6616.000,6603.000
6725.000,6706.000,6639.000
6799.000,6669.000,6603.000
6864.000,6685.000,6560.000
6892.000,6667.000,6619.000
6828.000,6694.000,6596.000
6873.000,6719.000,6707.000
7001.000,6709.000,6703.000
7061.000,6756.000,6793.000
7074.000,6874.000,6908.000
7175.000,7005.000,6994.000
7236.000,7036.000,6983.000
7282.000,7039.000,7008.000
7329.000,7059.000,7042.000
7377.000,7132.000,7094.000
7259.000,7049.000,7017.000
7260.000,7058.000,6988.000
7247.000,6973.000,7013.000
7196.000,6920.000,6877.000
7142.000,6853.000,6897.000
7142.000,6893.000,6941.000
7114.000,6827.000,6907.000
7063.000,6839.000,6884.000
7151.000,6809.000,6911.000
7206.000,6941.000,6902.000
7241.000,6935.000,6885.000
7207.000,6839.000,6820.000
7111.000,6856.000,6880.000
7073.000,6900.000,6826.000
7070.000,6766.000,6884.000
6995.000,6764.000,6842.000
7005.000,6698.000,6751.000
6987.000,6769.000,6786.000
6893.000,6680.000,6673.000
6929.000,6715.000,6736.000
6915.000,6663.000,6742.000
6939.000,6679.000,6686.000
6886.000,6627.000,6675.000
6872.000,6668.000,6660.000
6727.000,6647.000,6638.000
6873.000,6661.000,6624.000
6927.000,6669.000,6630.000
6873.000,6627.000,6613.000
6784.000,6705.000,6606.000
6865.000,6617.000,6642.000
6820.000,6635.000,6666.000
6757.000,6640.000,6654.000
6812.000,6726.000,6642.000
6889.000,6656.000,6655.000
6851.000,6630.000,6580.000
6850.000,6611.000,6631.000
6842.000,6653.000,6625.000
6902.000,6685.000,6582.000
6852.000,6730.000,6635.000
6849.000,6688.000,6629.000
6802.000,6636.000,6588.000
6865.000,6627.000,6672.000
6855.000,6630.000,6545.000
6748.000,6592.000,6579.000
6753.000,6566.000,6513.000
6723.000,6579.000,6506.000
6711.000,6602.000,6526.000
6751.000,6513.000,6531.000
6722.000,6546.000,6514.000
6739.000,6525.000,6435.000
6663.000,6474.000,6426.000
6637.000,6466.000,6492.000
6595.000,6447.000,6385.000
6624.000,6486.000,6468.000
6567.000,6432.000,6405.000
6625.000,6476.000,6307.000
6543.000,6397.000,6378.000
6557.000,6403.000,6396.000
6641.000,6403.000,6423.000
6557.000,6411.000,6413.000
6529.000,6402.000,6442.000
6651.000,6356.000,6481.000
6561.000,6493.000,6419.000
6585.000,6472.000,6415.000
6612.000,6420.000,6409.000
6598.000,6445.000,6410.000
6550.000,6387.000,6405.000
6469.000,6384.000,6399.000
6535.000,6357.000,6338.000
6506.000,6358.000,6352.000
6456.000,6289.000,6298.000
6354.000,6278.000,6263.000
6451.000,6221.000,6240.000
6429.000,6228.000,6205.000
6315.000,6196.000,6159.000
6356.000,6128.000,6157.000
6313.000,6119.000,6171.000
6234.000,6188.000,6079.000
6220.000,6028.000,6076.000
6212.000,6087.000,6134.000
6188.000,6082.000,6094.000
6209.000,6044.000,6048.000
6171.000,6081.000,6060.000
6208.000,6070.000,6105.000
6250.000,6056.000,6024.000
6259.000,6036.000,6108.000
6207.000,6086.000,6018.000
6299.000,6110.000,6104.000
6207.000,6081.000,6018.000
6268.000,6084.000,5986.000
6237.000,6100.000,6035.000
6221.000,6062.000,6061.000
6233.000,6104.000,6090.000
6190.000,6103.000,6023.000
6155.000,6011.000,6020.000
6072.000,5968.000,6036.000
6247.000,6084.000,6085.000
6087.000,6033.000,5943.000
6106.000,5987.000,5975.000
6022.000,6017.000,5962.000
6187.000,6007.000,6034.000
6100.000,5949.000,6019.000
6015.000,5913.000,5920.000
6084.000,6002.000,5970.000
6040.000,5964.000,5993.000
6106.000,5956.000,5874.000
6069.000,5925.000,5924.000
6070.000,5856.000,5895.000
6018.000,5878.000,5895.000
5964.000,5904.000,5857.000
6037.000,5831.000,5863.000
5914.000,5845.000,5829.000
5939.000,5834.000,5901.000
5949.000,5765.000,5766.000
5955.000,5873.000,5759.000
5963.000,5781.000,5828.000
5936.000,5777.000,5760.000
5865.000,5779.000,5767.000
5908.000,5827.000,5721.000
5906.000,5817.000,5802.000
5892.000,5833.000,5801.000
5995.000,5809.000,5824.000
5943.000,5863.000,5785.000
5967.000,5858.000,5859.000
5939.000,5811.000,5816.000
5957.000,5875.000,5861.000
6042.000,5882.000,5803.000
5911.000,5828.000,5799.000
5925.000,5767.000,5846.000
5960.000,5744.000,5803.000
5888.000,5846.000,5728.000
5884.000,5841.000,5728.000
5891.000,5765.000,5819.000
5903.000,5764.000,5806.000
5848.000,5731.000,5664.000
5860.000,5795.000,5818.000
5817.000,5692.000,5688.000
5789.000,5697.000,5757.000
5855.000,5690.000,5689.000
5778.000,5759.000,5702.000
5720.000,5620.000,5743.000
5830.000,5687.000,5696.000
5686.000,5654.000,5630.000
5740.000,5615.000,5563.000
5680.000,5635.000,5628.000
5715.000,5584.000,5515.000
5715.000,5542.000,5549.000
5770.000,5575.000,5503.000
5753.000,5515.000,5597.000
5706.000,5610.000,5496.000
5703.000,5515.000,5540.000
5662.000,5567.000,5540.000
5635.000,5456.000,5541.000
5623.000,5619.000,5497.000
5624.000,5523.000,5550.000
5701.000,5535.000,5474.000
5717.000,5582.000,5587.000
5635.000,5649.000,5548.000
5703.000,5627.000,5541.000
5771.000,5617.000,5584.000
5757.000,5759.000,5634.000
5761.000,5684.000,5736.000
5799.000,5726.000,5650.000
5818.000,5794.000,5745.000
5913.000,5743.000,5716.000
5887.000,5830.000,5772.000
5911.000,5794.000,5751.000
5883.000,5759.000,5773.000
5899.000,5916.000,5771.000
5972.000,5875.000,5790.000
5951.000,5891.000,5751.000
5918.000,5794.000,5709.000
5963.000,5765.000,5738.000
5895.000,5803.000,5766.000
5872.000,5784.000,5699.000
5913.000,5744.000,5740.000
5886.000,5811.000,5770.000
5935.000,5819.000,5753.000
5923.000,5716.000,5675.000
5778.000,5728.000,5692.000
5825.000,5795.000,5667.000
5804.000,5792.000,5636.000
5753.000,5634.000,5645.000
5791.000,5635.000,5629.000
5639.000,5645.000,5589.000
5714.000,5526.000,5513.000
5735.000,5608.000,5583.000
5696.000,5498.000,5458.000
5571.000,5527.000,5564.000
5515.000,5487.000,5437.000
5607.000,5525.000,5465.000
5525.000,5539.000,5462.000
5511.000,5395.000,5439.000
5434.000,5349.000,5340.000
5509.000,5368.000,5311.000
5489.000,5379.000,5344.000
5404.000,5343.000,5243.000
5381.000,5311.000,5214.000
5437.000,5263.000,5290.000
5307.000,5277.000,5250.000
5343.000,5253.000,5183.000
5330.000,5259.000,5184.000
5362.000,5170.000,5233.000
5234.000,5240.000,5168.000
5252.000,5189.000,5082.000
5326.000,5195.000,5155.000
5168.000,5197.000,5141.000
5267.000,5151.000,5149.000
5231.000,5077.000,5099.000
5263.000,5128.000,5150.000
5200.000,5105.000,5043.000
5196.000,5099.000,5007.000
5147.000,5091.000,5055.000
5192.000,5064.000,5029.000
5083.000,5001.000,4975.000
5089.000,4996.000,5016.000
5120.000,4986.000,4959.000
5079.000,4941.000,5001.000
5036.000,4968.000,5013.000
5058.000,4955.000,4981.000
5046.000,4898.000,4926.000
4943.000,4854.000,4875.000
4936.000,4919.000,4813.000
4845.000,4869.000,4846.000
4894.000,4838.000,4767.000
4948.000,4855.000,4850.000
4877.000,4790.000,4805.000
4897.000,4831.000,4752.000
4851.000,4790.000,4797.000
4807.000,4771.000,4747.000
4780.000,4761.000,4724.000
4779.000,4703.000,4711.000
4812.000,4704.000,4698.000
4762.000,4642.000,4672.000
4807.000,4719.000,4672.000
4761.000,4704.000,4658.000
4767.000,4678.000,4648.000
4792.000,4612.000,4572.000
4703.000,4638.000,4674.000
4723.000,4651.000,4575.000
4673.000,4619.000,4620.000
4733.000,4598.000,4615.000
4673.000,4620.000,4528.000
4652.000,4607.000,4584.000
4763.000,4638.000,4652.000
4644.000,4577.000,4637.000
4660.000,4568.000,4521.000
4696.000,4693.000,4590.000
4661.000,4623.000,4585.000
4618.000,4597.000,4627.000
4682.000,4516.000,4554.000
4621.000,4551.000,4564.000
4667.000,4608.000,4534.000
4679.000,4540.000,4548.000
4632.000,4541.000,4581.000
4619.000,4537.000,4556.000
4649.000,4587.000,4538.000
4577.000,4482.000,4541.000
4546.000,4455.000,4545.000
4604.000,4474.000,4509.000
4517.000,4429.000,4494.000
4579.000,4452.000,4431.000
4507.000,4512.000,4364.000
4544.000,4464.000,4441.000
4512.000,4369.000,4373.000
4499.000,4451.000,4445.000
4420.000,4356.000,4384.000
4514.000,4408.000,4345.000
4441.000,4346.000,4343.000
4458.000,4372.000,4314.000
4430.000,4292.000,4306.000
4446.000,4327.000,4297.000
4336.000,4302.000,4237.000
4387.000,4315.000,4280.000
4319.000,4224.000,4243.000
4342.000,4250.000,4217.000
4284.000,4306.000,4251.000
4299.000,4258.000,4171.000
4273.000,4185.000,4156.000
4258.000,4201.000,4217.000
4284.000,4186.000,4148.000
4201.000,4214.000,4159.000
4229.000,4111.000,4201.000
4225.000,4128.000,4177.000
4212.000,4139.000,4133.000
4238.000,4150.000,4183.000
4222.000,4179.000,4159.000
4275.000,4071.000,4082.000
4254.000,4143.000,4091.000
4227.000,4132.000,4137.000
4259.000,4171.000,4083.000
4219.000,4147.000,4163.000
4244.000,4173.000,4078.000
4230.000,4133.000,4140.000
4219.000,4131.000,4141.000
4194.000,4099.000,4110.000
4190.000,4109.000,4105.000
4208.000,4121.000,4143.000
4237.000,4146.000,4179.000
4207.000,4122.000,4156.000
4271.000,4136.000,4156.000
4171.000,4156.000,4127.000
4246.000,4088.000,4118.000
4173.000,4137.000,4143.000
4230.000,4089.000,4142.000
4210.000,4126.000,4070.000
4270.000,4128.000,4138.000
4248.000,4132.000,4110.000
4280.000,4142.000,4144.000
4244.000,4102.000,4129.000
4262.000,4142.000,4170.000
4270.000,4204.000,4172.000
4317.000,4199.000,4169.000
4352.000,4213.000,4211.000
4430.000,4223.000,4261.000
4459.000,4226.000,4281.000
4497.000,4301.000,4364.000
4547.000,4303.000,4396.000
4606.000,4348.000,4377.000
4699.000,4404.000,4537.000
4743.000,4482.000,4521.000
4780.000,4530.000,4505.000
4931.000,4541.000,4619.000
4961.000,4596.000,4748.000
5138.000,4699.000,4823.000
5128.000,4736.000,4904.000
5278.000,4816.000,4927.000
5403.000,4920.000,5075.000
5463.000,5039.000,5166.000
5643.000,5115.000,5247.000
5779.000,5235.000,5379.000
5774.000,5274.000,5423.000
5985.000,5398.000,5524.000
6131.000,5421.000,5698.000
6239.000,5556.000,5823.000
6315.000,5600.000,5847.000
6419.000,5610.000,5904.000
6417.000,5658.000,5894.000
6350.000,5627.000,5868.000
6262.000,5551.000,5838.000
6202.000,5494.000,5685.000
6106.000,5428.000,5683.000
5916.000,5378.000,5485.000
5856.000,5246.000,5450.000
5665.000,5096.000,5224.000
5427.000,4915.000,5163.000
5398.000,4850.000,5012.000
5209.000,4812.000,4949.000
5099.000,4678.000,4791.000
4872.000,4564.000,4595.000
4780.000,4426.000,4470.000
4643.000,4314.000,4421.000
4605.000,4287.000,4330.000
4510.000,4199.000,4246.000
4339.000,4154.000,4219.000
4279.000,4091.000,4157.000
4191.000,4051.000,4008.000
4138.000,3970.000,3958.000
4095.000,3860.000,3930.000
4004.000,3829.000,3882.000
3944.000,3764.000,3811.000
3900.000,3715.000,3795.000
3790.000,3700.000,3722.000
3791.000,3717.000,3670.000
3756.000,3613.000,3649.000
3757.000,3624.000,3634.000
3699.000,3597.000,3632.000
3715.000,3650.000,3553.000
3648.000,3586.000,3587.000
3643.000,3532.000,3556.000
3695.000,3520.000,3530.000
3625.000,3491.000,3572.000
3592.000,3495.000,3511.000
3591.000,3506.000,3500.000
3607.000,3495.000,3496.000
3629.000,3455.000,3484.000
3566.000,3472.000,3513.000
3590.000,3498.000,3492.000
3602.000,3493.000,3468.000
3602.000,3451.000,3530.000
3545.000,3453.000,3467.000
3586.000,3536.000,3557.000
3531.000,3483.000,3464.000
3576.000,3514.000,3489.000
3569.000,3459.000,3475.000
3549.000,3457.000,3456.000
3510.000,3463.000,3488.000
3500.000,3438.000,3460.000
3499.000,3426.000,3391.000
3540.000,3412.000,3435.000
3507.000,3402.000,3422.000
3487.000,3389.000,3372.000
3446.000,3345.000,3371.000
3423.000,3346.000,3348.000
3431.000,3352.000,3334.000
3360.000,3395.000,3333.000
3419.000,3339.000,3309.000
3397.000,3305.000,3335.000
3331.000,3291.000,3291.000
3379.000,3305.000,3298.000
3326.000,3292.000,3351.000
3323.000,3308.000,3254.000
3297.000,3261.000,3287.000
3306.000,3294.000,3236.000
3347.000,3284.000,3317.000
3353.000,3294.000,3276.000
3329.000,3302.000,3292.000
3358.000,3334.000,3233.000
3370.000,3331.000,3286.000
3374.000,3368.000,3327.000
3361.000,3328.000,3278.000
3350.000,3357.000,3319.000
3404.000,3388.000,3293.000
3374.000,3335.000,3295.000
3333.000,3326.000,3286.000
3313.000,3311.000,3301.000
3362.000,3304.000,3217.000
3331.000,3363.000,3291.000
3337.000,3324.000,3279.000
3388.000,3326.000,3275.000
3327.000,3283.000,3254.000
3326.000,3222.000,3245.000
3287.000,3208.000,3199.000
3319.000,3232.000,3292.000
3304.000,3250.000,3252.000
3273.000,3185.000,3170.000
3222.000,3227.000,3259.000
3250.000,3214.000,3194.000
3199.000,3158.000,3164.000
3203.000,3184.000,3169.000
3153.000,3204.000,3150.000
3161.000,3171.000,3140.000
3154.000,3157.000,3115.000
3145.000,3133.000,3161.000
3157.000,3116.000,3103.000
3133.000,3126.000,3096.000
3145.000,3140.000,3094.000
3170.000,3141.000,3099.000
3124.000,3162.000,3128.000
3183.000,3096.000,3100.000
3181.000,3095.000,3087.000
3128.000,3117.000,3139.000
3126.000,3096.000,3098.000
3199.000,3083.000,3105.000
3187.000,3101.000,3113.000
3120.000,3173.000,3141.000
3223.000,3141.000,3110.000
3200.000,3132.000,3120.000
3170.000,3133.000,3126.000
3225.000,3127.000,3159.000
3195.000,3159.000,3168.000
3188.000,3126.000,3167.000
3162.000,3125.000,3130.000
3173.000,3134.000,3085.000
3175.000,3182.000,3085.000
3124.000,3127.000,3155.000
3168.000,3120.000,3107.000
3187.000,3122.000,3101.000
3191.000,3127.000,3131.000
3131.000,3063.000,3073.000
3217.000,3131.000,3114.000
3140.000,3136.000,3111.000
3130.000,3068.000,3119.000
3111.000,3037.000,3079.000
3122.000,3102.000,3116.000
3097.000,3092.000,3061.000
3130.000,3049.000,3003.000
3075.000,3035.000,3069.000
3032.000,3057.000,2992.000
3094.000,3073.000,3013.000
3047.000,3011.000,3035.000
3099.000,3030.000,2993.000
3035.000,2972.000,2999.000
3027.000,2967.000,2985.000
3013.000,2959.000,2932.000
3028.000,2987.000,3002.000
3027.000,2943.000,2991.000
3008.000,2955.000,3009.000
2980.000,2966.000,2982.000
3005.000,2966.000,2986.000
2984.000,2965.000,2938.000
3031.000,3017.000,2956.000
3080.000,2945.000,3035.000
3060.000,3017.000,2966.000
3002.000,3046.000,2962.000
2994.000,2932.000,3022.000
3033.000,2982.000,3003.000
3047.000,3015.000,3007.000
3069.000,3019.000,3025.000
3036.000,3006.000,2986.000
3018.000,3060.000,3020.000
3074.000,3005.000,3067.000
3080.000,3033.000,3070.000
3078.000,3004.000,2992.000
3076.000,3046.000,3020.000
3057.000,3018.000,3015.000
3093.000,3049.000,3055.000
3085.000,3070.000,3033.000
3031.000,3024.000,3019.000
3093.000,3024.000,3032.000
3053.000,2992.000,3005.000
3118.000,2991.000,3042.000
3063.000,3011.000,3020.000
3028.000,3009.000,3015.000
3017.000,3017.000,3029.000
3075.000,3015.000,3014.000
3048.000,2966.000,2972.000
2997.000,3001.000,2971.000
3037.000,2994.000,3023.000
3009.000,2954.000,2925.000
2958.000,2938.000,2947.000
2984.000,2965.000,2880.000
2957.000,2966.000,2913.000
2967.000,2939.000,2930.000
2947.000,2937.000,2917.000
2967.000,2903.000,2887.000
2938.000,2950.000,2902.000
2992.000,2903.000,2889.000
2899.000,2908.000,2908.000
2949.000,2866.000,2899.000
2909.000,2859.000,2823.000
2935.000,2915.000,2914.000
2928.000,2930.000,2923.000
2951.000,2893.000,2896.000
2959.000,2967.000,2903.000
2954.000,2904.000,2942.000
3005.000,2946.000,2892.000
2973.000,2979.000,2934.000
2983.000,2972.000,2948.000
2988.000,2941.000,2978.000
2988.000,2904.000,2947.000
2975.000,2979.000,2931.000
2959.000,2944.000,2946.000
2997.000,2932.000,2959.000
2970.000,2953.000,2915.000
2958.000,2933.000,2959.000
2992.000,2980.000,2944.000
2980.000,2954.000,2872.000
2980.000,2933.000,2952.000
2967.000,2931.000,2906.000
2943.000,2936.000,2953.000
2969.000,2875.000,2873.000
2951.000,2924.000,2861.000
2926.000,2867.000,2867.000
2899.000,2904.000,2859.000
2916.000,2891.000,2869.000
2954.000,2883.000,2851.000
2903.000,2839.000,2862.000
2908.000,2846.000,2886.000
2862.000,2851.000,2871.000
2916.000,2831.000,2835.000
2884.000,2837.000,2801.000
2875.000,2842.000,2818.000
2867.000,2882.000,2863.000
2823.000,2864.000,2807.000
2859.000,2755.000,2831.000
2836.000,2791.000,2787.000
2815.000,2873.000,2808.000
2862.000,2882.000,2822.000
2890.000,2882.000,2830.000
2857.000,2892.000,2850.000
2873.000,2865.000,2854.000
2911.000,2842.000,2854.000
2917.000,2885.000,2895.000
2907.000,2893.000,2882.000
2939.000,2892.000,2896.000
2924.000,2879.000,2847.000
2884.000,2882.000,2845.000
2905.000,2907.000,2866.000
2919.000,2874.000,2857.000
2871.000,2831.000,2862.000
2835.000,2875.000,2842.000
2885.000,2847.000,2866.000
2905.000,2888.000,2851.000
2894.000,2810.000,2842.000
2842.000,2796.000,2836.000
2834.000,2849.000,2820.000
2827.000,2798.000,2805.000
2869.000,2795.000,2807.000
2858.000,2840.000,2787.000
2797.000,2768.000,2807.000
2786.000,2766.000,2771.000
2787.000,2784.000,2767.000
2834.000,2818.000,2772.000
2809.000,2760.000,2756.000
2784.000,2722.000,2731.000
2777.000,2768.000,2767.000
2787.000,2713.000,2751.000
2773.000,2738.000,2737.000
2782.000,2755.000,2683.000
2759.000,2767.000,2707.000
2775.000,2688.000,2721.000
2751.000,2727.000,2737.000
2752.000,2710.000,2703.000
2753.000,2729.000,2739.000
2784.000,2704.000,2749.000
2785.000,2748.000,2735.000
2755.000,2739.000,2733.000
2785.000,2761.000,2744.000
2776.000,2755.000,2726.000
2762.000,2677.000,2705.000
2764.000,2737.000,2770.000
2743.000,2778.000,2761.000
2742.000,2739.000,2700.000
2782.000,2720.000,2742.000
2765.000,2764.000,2746.000
2745.000,2769.000,2672.000
2756.000,2735.000,2718.000
2722.000,2750.000,2721.000
2728.000,2703.000,2724.000
2775.000,2735.000,2707.000
2742.000,2684.000,2720.000
2726.000,2714.000,2671.000
2738.000,2711.000,2644.000
2683.000,2684.000,2748.000
2695.000,2677.000,2675.000
2691.000,2654.000,2663.000
2669.000,2683.000,2603.000
2657.000,2661.000,2612.000
2680.000,2633.000,2590.000
2639.000,2608.000,2649.000
2672.000,2620.000,2591.000
2658.000,2615.000,2596.000
2639.000,2625.000,2587.000
2650.000,2627.000,2583.000
2620.000,2583.000,2602.000
2632.000,2626.000,2569.000
2605.000,2560.000,2566.000
2591.000,2566.000,2544.000
2582.000,2560.000,2607.000
2578.000,2540.000,2527.000
2571.000,2503.000,2551.000
2557.000,2521.000,2567.000
2532.000,2538.000,2503.000
2543.000,2568.000,2541.000
2525.000,2516.000,2520.000
2582.000,2503.000,2521.000
2560.000,2535.000,2532.000
2580.000,2493.000,2514.000
2545.000,2529.000,2536.000
2537.000,2537.000,2563.000
2550.000,2551.000,2526.000
2566.000,2504.000,2484.000
2541.000,2493.000,2528.000
2616.000,2545.000,2538.000
2558.000,2552.000,2499.000
2527.000,2535.000,2524.000
2555.000,2532.000,2531.000
2570.000,2541.000,2530.000
2567.000,2533.000,2517.000
2522.000,2503.000,2483.000
2546.000,2527.000,2498.000
2539.000,2521.000,2525.000
2490.000,2526.000,2481.000
2503.000,2490.000,2466.000
2527.000,2475.000,2471.000
2530.000,2436.000,2451.000
2471.000,2495.000,2451.000
2490.000,2486.000,2459.000
2508.000,2462.000,2456.000
2476.000,2482.000,2447.000
2491.000,2470.000,2468.000
2470.000,2481.000,2408.000
2469.000,2481.000,2420.000
2462.000,2426.000,2466.000
2447.000,2437.000,2412.000
2444.000,2411.000,2424.000
2409.000,2415.000,2412.000
2391.000,2396.000,2375.000
2433.000,2380.000,2364.000
2378.000,2380.000,2383.000
2394.000,2360.000,2364.000
2373.000,2399.000,2348.000
2366.000,2340.000,2335.000
2393.000,2332.000,2340.000
2380.000,2338.000,2353.000
2340.000,2324.000,2366.000
2387.000,2348.000,2343.000
2331.000,2338.000,2346.000
2366.000,2357.000,2327.000
2334.000,2294.000,2337.000
2347.000,2328.000,2331.000
2382.000,2318.000,2300.000
2331.000,2332.000,2358.000
2344.000,2326.000,2343.000
2360.000,2318.000,2321.000
2368.000,2323.000,2363.000
2341.000,2293.000,2326.000
2365.000,2333.000,2344.000
2365.000,2329.000,2351.000
2326.000,2337.000,2311.000
2384.000,2336.000,2285.000
2353.000,2357.000,2323.000
2347.000,2314.000,2302.000
2311.000,2331.000,2298.000
2348.000,2334.000,2284.000
2345.000,2331.000,2308.000
2351.000,2291.000,2300.000
2303.000,2287.000,2311.000
2354.000,2299.000,2302.000
2285.000,2299.000,2306.000
2302.000,2286.000,2295.000
2302.000,2253.000,2258.000
2304.000,2291.000,2289.000
2283.000,2264.000,2245.000
2294.000,2246.000,2261.000
2304.000,2281.000,2274.000
2280.000,2261.000,2262.000
2272.000,2270.000,2227.000
2277.000,2238.000,2208.000
2244.000,2221.000,2224.000
2234.000,2243.000,2193.000
2233.000,2251.000,2221.000
2235.000,2209.000,2191.000
2203.000,2209.000,2167.000
2192.000,2179.000,2139.000
2229.000,2183.000,2165.000
2192.000,2179.000,2155.000
2161.000,2157.000,2136.000
2131.000,2136.000,2146.000
2174.000,2162.000,2120.000
2164.000,2143.000,2127.000
2151.000,2122.000,2139.000
2142.000,2121.000,2111.000
2138.000,2139.000,2104.000
2157.000,2105.000,2104.000
2125.000,2111.000,2112.000
2158.000,2147.000,2049.000
2155.000,2083.000,2074.000
2155.000,2092.000,2105.000
2113.000,2148.000,2098.000
2134.000,2105.000,2073.000
2124.000,2108.000,2116.000
2120.000,2087.000,2135.000
2131.000,2131.000,2105.000
2143.000,2125.000,2092.000
2115.000,2090.000,2117.000
2142.000,2107.000,2085.000
2119.000,2068.000,2076.000
2143.000,2093.000,2081.000
2101.000,2074.000,2068.000
2103.000,2118.000,2090.000
2113.000,2075.000,2099.000
2077.000,2079.000,2108.000
2110.000,2089.000,2090.000
2094.000,2076.000,2077.000
2102.000,2058.000,2063.000
2075.000,2083.000,2084.000
2054.000,2072.000,2061.000
2067.000,2031.000,2052.000
2060.000,2028.000,2067.000
2070.000,2025.000,2040.000
2075.000,2075.000,2038.000
2049.000,2023.000,1996.000
2032.000,2031.000,2012.000
2036.000,1993.000,2015.000
2037.000,2005.000,2032.000
2018.000,2020.000,1968.000
2017.000,1999.000,2009.000
2002.000,1975.000,1990.000
1983.000,1990.000,1962.000
1996.000,1996.000,1962.000
1978.000,1963.000,1946.000
1986.000,1981.000,1950.000
1969.000,1930.000,1953.000
1953.000,1928.000,1907.000
1958.000,1924.000,1950.000
1955.000,1931.000,1911.000
1938.000,1930.000,1911.000
1936.000,1918.000,1926.000
1924.000,1935.000,1904.000
1946.000,1914.000,1872.000
1949.000,1910.000,1903.000
1910.000,1901.000,1901.000
1914.000,1894.000,1910.000
1908.000,1918.000,1893.000
1879.000,1906.000,1905.000
1911.000,1895.000,1867.000
1886.000,1877.000,1926.000
1927.000,1896.000,1894.000
1880.000,1901.000,1911.000
1866.000,1883.000,1912.000
1912.000,1880.000,1909.000
1900.000,1881.000,1857.000
1908.000,1909.000,1888.000
1884.000,1899.000,1880.000
1885.000,1878.000,1876.000
1886.000,1876.000,1878.000
1881.000,1861.000,1864.000
1871.000,1861.000,1891.000
1878.000,1850.000,1890.000
1869.000,1884.000,1868.000
1858.000,1835.000,1869.000
1835.000,1886.000,1842.000
1894.000,1858.000,1858.000
1859.000,1858.000,1844.000
1831.000,1825.000,1824.000
1817.000,1809.000,1811.000
1867.000,1847.000,1839.000
1829.000,1836.000,1829.000
1854.000,1828.000,1809.000
1828.000,1787.000,1812.000
1854.000,1791.000,1795.000
1817.000,1789.000,1797.000
1805.000,1800.000,1784.000
1785.000,1776.000,1763.000
1784.000,1762.000,1770.000
1790.000,1752.000,1776.000
1773.000,1756.000,1748.000
1787.000,1748.000,1733.000
