Focus Mode,Read Mode,Exposure Time (sec),Number of Frames,Start Y,End Y,Date,Time,Position (microns)
Single Acquisition,Spectrum,20.000000,3,105,125,2/11/2021,5:47:48 PM,0.000000,0.000000,221.990000,

1299.000,1352.000,1380.000
1299.000,1352.000,1377.000
1311.000,1343.000,1374.000
1303.000,1343.000,1367.000
1301.000,1351.000,1363.000
1299.000,1338.000,1358.000
1298.000,1339.000,1362.000
1305.000,1335.000,1375.000
1292.000,1338.000,1345.000
1303.000,1330.000,1353.000
1305.000,1329.000,1356.000
1310.000,1338.000,1342.000
1295.000,1336.000,1353.000
1293.000,1349.000,1341.000
1305.000,1335.000,1349.000
1296.000,1335.000,1351.000
1317.000,1332.000,1365.000
1291.000,1343.000,1349.000
1303.000,1339.000,1357.000
1310.000,1334.000,1357.000
1323.000,1335.000,1358.000
1311.000,1347.000,1361.000
1311.000,1351.000,1367.000
1320.000,1360.000,1365.000
1328.000,1352.000,1359.000
1315.000,1365.000,1386.000
1315.000,1362.000,1383.000
1325.000,1366.000,1386.000
1330.000,1391.000,1399.000
1331.000,1384.000,1400.000
1346.000,1384.000,1406.000
1340.000,1410.000,1408.000
1346.000,1411.000,1420.000
1343.000,1415.000,1446.000
1344.000,1422.000,1438.000
1354.000,1430.000,1447.000
1355.000,1446.000,1471.000
1367.000,1433.000,1462.000
1377.000,1445.000,1489.000
1386.000,1461.000,1496.000
1376.000,1449.000,1498.000
1390.000,1459.000,1480.000
1380.000,1471.000,1511.000
1403.000,1485.000,1516.000
1406.000,1500.000,1526.000
1432.000,1514.000,1538.000
1431.000,1514.000,1575.000
1460.000,1545.000,1577.000
1442.000,1544.000,1609.000
1457.000,1584.000,1624.000
1475.000,1585.000,1641.000
1485.000,1613.000,1660.000
1492.000,1651.000,1728.000
1507.000,1648.000,1724.000
1521.000,1693.000,1765.000
1545.000,1670.000,1809.000
1513.000,1724.000,1781.000
1519.000,1737.000,1794.000
1515.000,1690.000,1774.000
1518.000,1688.000,1784.000
1520.000,1663.000,1755.000
1526.000,1661.000,1739.000
1527.000,1649.000,1689.000
1531.000,1621.000,1688.000
1515.000,1597.000,1638.000
1493.000,1597.000,1632.000
1501.000,1576.000,1634.000
1540.000,1600.000,1637.000
1548.000,1627.000,1696.000
1542.000,1642.000,1675.000
1598.000,1684.000,1756.000
1626.000,1716.000,1770.000
1650.000,1766.000,1834.000
1680.000,1810.000,1873.000
1693.000,1834.000,1907.000
1722.000,1857.000,1940.000
1755.000,1884.000,1969.000
1765.000,1933.000,2016.000
1772.000,1899.000,2015.000
1786.000,1939.000,2029.000
1815.000,1923.000,2021.000
1774.000,1934.000,2008.000
1803.000,1936.000,2030.000
1811.000,1924.000,2012.000
1844.000,1948.000,2019.000
1806.000,1958.000,2017.000
1838.000,1942.000,2000.000
1826.000,1968.000,2030.000
1858.000,1939.000,2022.000
1860.000,1974.000,2033.000
1858.000,2000.000,2040.000
1915.000,1989.000,2069.000
1919.000,1998.000,2106.000
1923.000,2030.000,2112.000
1999.000,2056.000,2181.000
2022.000,2133.000,2189.000
2076.000,2199.000,2281.000
2141.000,2269.000,2325.000
2194.000,2359.000,2447.000
2323.000,2459.000,2613.000
2431.000,2578.000,2648.000
2552.000,2687.000,2807.000
2620.000,2811.000,2974.000
2765.000,2947.000,3158.000
2809.000,3103.000,3259.000
2915.000,3091.000,3280.000
2946.000,3145.000,3309.000
2985.000,3160.000,3357.000
3031.000,3212.000,3398.000
2995.000,3183.000,3377.000
2959.000,3136.000,3292.000
2958.000,3163.000,3261.000
2902.000,3058.000,3202.000
2893.000,3044.000,3142.000
2918.000,3051.000,3181.000
2981.000,3130.000,3217.000
3095.000,3208.000,3316.000
3232.000,3328.000,3388.000
3388.000,3520.000,3547.000
3735.000,3922.000,3894.000
4279.000,4473.000,4503.000
5584.000,5752.000,5592.000
8596.000,8826.000,8362.000
18131.000,64654.000,65535.000
61819.000,61942.000,61964.000
62258.000,62234.000,62235.000
62173.000,62121.000,62136.000
62097.000,62131.000,62134.000
62116.000,62121.000,62130.000
62114.000,62092.000,62092.000
62087.000,62084.000,62092.000
62082.000,62091.000,62093.000
62093.000,62077.000,62083.000
62084.000,62075.000,62077.000
62069.000,62079.000,62079.000
62077.000,62076.000,62076.000
62080.000,62071.000,62075.000
62070.000,62074.000,62073.000
62068.000,62072.000,62071.000
62073.000,62067.000,62075.000
62072.000,62069.000,62075.000
62072.000,62070.000,62070.000
62068.000,62072.000,62074.000
62074.000,62070.000,62074.000
62071.000,62069.000,62072.000
62072.000,62071.000,62072.000
62071.000,62066.000,62072.000
62076.000,62068.000,62072.000
62072.000,62072.000,62071.000
62071.000,62066.000,62066.000
62070.000,62066.000,62071.000
62071.000,62066.000,62074.000
62070.000,62069.000,62071.000
62072.000,62058.000,62067.000
62072.000,62057.000,62071.000
62067.000,62066.000,62070.000
62065.000,62061.000,62071.000
62070.000,62070.000,62072.000
62069.000,62066.000,62067.000
62069.000,62063.000,62065.000
62069.000,62064.000,62076.000
62073.000,62065.000,62070.000
62068.000,62071.000,62067.000
62069.000,62068.000,62070.000
62073.000,62064.000,62069.000
62073.000,62066.000,62067.000
62071.000,62069.000,62074.000
62075.000,62065.000,62067.000
62068.000,62064.000,62070.000
62073.000,62067.000,62072.000
62074.000,62063.000,62072.000
62070.000,62063.000,62070.000
62068.000,62071.000,62068.000
62070.000,62070.000,62072.000
62067.000,62065.000,62073.000
62075.000,62070.000,62071.000
62072.000,62069.000,62066.000
62090.000,62073.000,62075.000
62102.000,62066.000,62071.000
42254.000,62074.000,62075.000
1625.000,62093.000,62073.000
1541.000,62110.000,62091.000
1513.000,3345.000,62106.000
1512.000,1558.000,27842.000
1508.000,1528.000,1592.000
1488.000,1520.000,1546.000
1519.000,1523.000,1519.000
1475.000,1490.000,1506.000
1479.000,1483.000,1495.000
1455.000,1472.000,1484.000
1458.000,1467.000,1486.000
1455.000,1469.000,1469.000
1433.000,1469.000,1474.000
1429.000,1460.000,1465.000
1427.000,1456.000,1446.000
1434.000,1449.000,1450.000
1429.000,1437.000,1443.000
1413.000,1439.000,1430.000
1422.000,1432.000,1447.000
1405.000,1424.000,1429.000
1407.000,1409.000,1438.000
1406.000,1422.000,1419.000
1414.000,1420.000,1414.000
1394.000,1408.000,1424.000
1399.000,1400.000,1419.000
1393.000,1402.000,1406.000
1372.000,1397.000,1400.000
1389.000,1382.000,1395.000
1379.000,1371.000,1396.000
1398.000,1384.000,1381.000
1369.000,1376.000,1382.000
1390.000,1375.000,1379.000
1373.000,1379.000,1389.000
1377.000,1372.000,1376.000
1367.000,1382.000,1370.000
1361.000,1374.000,1377.000
1366.000,1372.000,1360.000
1369.000,1368.000,1360.000
1351.000,1358.000,1367.000
1353.000,1364.000,1360.000
1361.000,1354.000,1358.000
1347.000,1351.000,1362.000
1355.000,1357.000,1359.000
1345.000,1347.000,1357.000
1337.000,1342.000,1356.000
1341.000,1342.000,1351.000
1339.000,1351.000,1352.000
1333.000,1348.000,1345.000
1329.000,1337.000,1351.000
1339.000,1345.000,1335.000
1339.000,1336.000,1343.000
1326.000,1330.000,1339.000
1336.000,1341.000,1333.000
1332.000,1338.000,1338.000
1327.000,1332.000,1343.000
1322.000,1327.000,1331.000
1314.000,1336.000,1325.000
1320.000,1329.000,1324.000
1312.000,1314.000,1325.000
1327.000,1325.000,1327.000
1324.000,1333.000,1333.000
1313.000,1321.000,1327.000
1323.000,1319.000,1317.000
1307.000,1322.000,1326.000
1310.000,1327.000,1320.000
1312.000,1317.000,1329.000
1309.000,1323.000,1320.000
1308.000,1327.000,1333.000
1303.000,1322.000,1315.000
1310.000,1311.000,1305.000
1308.000,1323.000,1315.000
1302.000,1313.000,1306.000
1309.000,1299.000,1319.000
1306.000,1310.000,1313.000
1303.000,1316.000,1307.000
1301.000,1314.000,1306.000
1308.000,1321.000,1303.000
1302.000,1305.000,1295.000
1304.000,1307.000,1311.000
1308.000,1305.000,1303.000
1305.000,1306.000,1303.000
1293.000,1304.000,1312.000
1297.000,1308.000,1317.000
1301.000,1310.000,1306.000
1313.000,1305.000,1300.000
1300.000,1299.000,1317.000
1300.000,1310.000,1314.000
1307.000,1303.000,1295.000
1295.000,1306.000,1293.000
1295.000,1302.000,1308.000
1287.000,1300.000,1307.000
1295.000,1294.000,1304.000
1306.000,1307.000,1304.000
1292.000,1300.000,1301.000
1309.000,1297.000,1302.000
1291.000,1303.000,1309.000
1304.000,1303.000,1302.000
1294.000,1303.000,1303.000
1301.000,1305.000,1310.000
1299.000,1311.000,1305.000
1311.000,1307.000,1309.000
1317.000,1315.000,1304.000
1303.000,1316.000,1317.000
1313.000,1317.000,1327.000
1315.000,1309.000,1331.000
1329.000,1319.000,1327.000
1337.000,1324.000,1324.000
1330.000,1349.000,1335.000
1346.000,1338.000,1341.000
1349.000,1357.000,1347.000
1360.000,1351.000,1360.000
1360.000,1365.000,1359.000
1378.000,1391.000,1385.000
1384.000,1404.000,1387.000
1405.000,1421.000,1409.000
1443.000,1436.000,1430.000
1439.000,1455.000,1451.000
1488.000,1489.000,1481.000
1509.000,1516.000,1504.000
1561.000,1544.000,1551.000
1591.000,1587.000,1603.000
1627.000,1640.000,1628.000
1697.000,1715.000,1702.000
1786.000,1785.000,1766.000
1847.000,1868.000,1848.000
1947.000,1954.000,1930.000
2053.000,2126.000,2047.000
2223.000,2219.000,2186.000
2393.000,2380.000,2352.000
2554.000,2598.000,2491.000
2842.000,2816.000,2794.000
3059.000,3095.000,2967.000
3368.000,3383.000,3266.000
3739.000,3685.000,3611.000
4084.000,4105.000,3953.000
4581.000,4562.000,4375.000
4975.000,4999.000,4823.000
5489.000,5462.000,5335.000
6022.000,6010.000,5787.000
6514.000,6474.000,6291.000
7070.000,6996.000,6743.000
7549.000,7526.000,7304.000
8167.000,8112.000,7634.000
8583.000,8413.000,8215.000
8937.000,8921.000,8587.000
9193.000,9233.000,8986.000
9545.000,9453.000,9159.000
9818.000,9799.000,9449.000
9917.000,10001.000,9612.000
10140.000,10139.000,9740.000
10196.000,10150.000,9690.000
10320.000,10290.000,9859.000
10428.000,10224.000,9950.000
10356.000,10361.000,9873.000
10156.000,10332.000,9947.000
10371.000,10301.000,10065.000
10410.000,10260.000,9933.000
10379.000,10417.000,10041.000
10379.000,10436.000,9953.000
10263.000,10337.000,9875.000
10312.000,10425.000,9984.000
10323.000,10304.000,9831.000
10217.000,10332.000,9953.000
10346.000,10371.000,10095.000
10327.000,10348.000,9940.000
10310.000,10313.000,10004.000
10457.000,10461.000,9994.000
10394.000,10409.000,10054.000
10364.000,10271.000,10028.000
10323.000,10458.000,10124.000
10430.000,10380.000,9999.000
10421.000,10501.000,9987.000
10381.000,10481.000,9866.000
10403.000,10391.000,9979.000
10414.000,10463.000,10026.000
10483.000,10477.000,10058.000
10427.000,10484.000,9989.000
10302.000,10491.000,9989.000
10442.000,10435.000,10041.000
10458.000,10332.000,10118.000
10402.000,10503.000,10007.000
10448.000,10342.000,9962.000
10341.000,10471.000,10092.000
10433.000,10413.000,10008.000
10544.000,10458.000,10015.000
10493.000,10480.000,9949.000
10440.000,10282.000,9902.000
10437.000,10246.000,10011.000
10441.000,10302.000,9980.000
10463.000,10431.000,10034.000
10549.000,10525.000,9971.000
10449.000,10504.000,9969.000
10520.000,10363.000,10039.000
10499.000,10421.000,10003.000
10518.000,10397.000,10023.000
10494.000,10329.000,10019.000
10562.000,10440.000,9974.000
10658.000,10484.000,10008.000
10610.000,10568.000,10072.000
10736.000,10568.000,10190.000
10688.000,10587.000,10272.000
10653.000,10592.000,10046.000
10716.000,10626.000,10187.000
10785.000,10592.000,10240.000
10765.000,10622.000,10223.000
10731.000,10642.000,10079.000
10732.000,10604.000,10221.000
10747.000,10627.000,10217.000
10813.000,10668.000,10116.000
10803.000,10627.000,10169.000
10765.000,10688.000,10275.000
10811.000,10680.000,10243.000
10701.000,10676.000,10223.000
10880.000,10708.000,10334.000
10994.000,10599.000,10155.000
10935.000,10723.000,10252.000
10824.000,10754.000,10256.000
10903.000,10680.000,10243.000
11006.000,10730.000,10263.000
11048.000,10770.000,10344.000
10958.000,10846.000,10297.000
10938.000,10590.000,10120.000
11010.000,10664.000,10228.000
10948.000,10677.000,10284.000
10871.000,10693.000,10251.000
10920.000,10757.000,10261.000
10949.000,10736.000,10206.000
10850.000,10628.000,10260.000
11051.000,10695.000,10277.000
10949.000,10632.000,10250.000
10987.000,10824.000,10276.000
10947.000,10657.000,10252.000
11003.000,10677.000,10299.000
10939.000,10803.000,10321.000
11010.000,10686.000,10199.000
11015.000,10714.000,10163.000
10962.000,10646.000,10264.000
11052.000,10753.000,10262.000
11005.000,10699.000,10278.000
10925.000,10800.000,10204.000
11017.000,10762.000,10184.000
11028.000,10711.000,10274.000
11006.000,10690.000,10177.000
11118.000,10685.000,10207.000
11098.000,10669.000,10219.000
11121.000,10713.000,10274.000
11207.000,10876.000,10310.000
11272.000,10851.000,10315.000
11230.000,10876.000,10333.000
11242.000,10955.000,10415.000
11218.000,10992.000,10461.000
11181.000,11152.000,10544.000
11291.000,10890.000,10549.000
11244.000,11058.000,10568.000
11311.000,11148.000,10615.000
11273.000,11094.000,10663.000
11272.000,11032.000,10495.000
11307.000,10877.000,10492.000
11253.000,10895.000,10477.000
11315.000,10930.000,10411.000
11278.000,10931.000,10301.000
11217.000,10917.000,10449.000
11237.000,10760.000,10349.000
11244.000,10875.000,10353.000
11289.000,10930.000,10307.000
11394.000,10917.000,10383.000
11375.000,10873.000,10388.000
11342.000,10841.000,10321.000
11384.000,10883.000,10384.000
11347.000,10816.000,10315.000
11389.000,10751.000,10307.000
11291.000,10933.000,10338.000
11357.000,10888.000,10365.000
11396.000,10836.000,10354.000
11442.000,10832.000,10323.000
11296.000,10798.000,10379.000
11303.000,10800.000,10260.000
11282.000,10822.000,10233.000
11456.000,10811.000,10261.000
11351.000,10927.000,10352.000
11347.000,10848.000,10330.000
11358.000,10797.000,10282.000
11361.000,10915.000,10331.000
11332.000,10829.000,10358.000
11332.000,10818.000,10217.000
11317.000,10833.000,10371.000
11279.000,10787.000,10156.000
11330.000,10826.000,10216.000
11230.000,10760.000,10146.000
11307.000,10744.000,10247.000
11379.000,10793.000,10259.000
11437.000,10938.000,10285.000
11461.000,10827.000,10345.000
11313.000,10936.000,10360.000
11406.000,10844.000,10323.000
11308.000,10801.000,10234.000
11482.000,10974.000,10312.000
11464.000,10974.000,10313.000
11432.000,10902.000,10366.000
11577.000,11026.000,10461.000
11494.000,10963.000,10438.000
11409.000,10878.000,10392.000
11352.000,10873.000,10476.000
11468.000,11038.000,10488.000
11484.000,11073.000,10503.000
11465.000,10988.000,10525.000
11445.000,11154.000,10622.000
11487.000,11101.000,10639.000
11542.000,11315.000,10586.000
11497.000,11243.000,10715.000
11572.000,11125.000,10655.000
11537.000,11119.000,10656.000
11540.000,11118.000,10620.000
11635.000,11186.000,10692.000
11672.000,11219.000,10625.000
11571.000,11133.000,10669.000
11689.000,11120.000,10728.000
11768.000,11272.000,10762.000
11623.000,11264.000,10678.000
11676.000,11238.000,10637.000
11620.000,11139.000,10636.000
11693.000,11036.000,10567.000
11713.000,11086.000,10615.000
11679.000,11149.000,10624.000
11785.000,11123.000,10645.000
11713.000,11133.000,10593.000
11776.000,11123.000,10576.000
11666.000,11041.000,10541.000
11705.000,11147.000,10575.000
11722.000,11030.000,10601.000
11538.000,11066.000,10423.000
11599.000,11068.000,10535.000
11675.000,10995.000,10579.000
11607.000,11023.000,10480.000
11542.000,11035.000,10418.000
11696.000,10987.000,10471.000
11593.000,10999.000,10358.000
11601.000,10911.000,10412.000
11418.000,10914.000,10400.000
11481.000,10813.000,10316.000
11489.000,10947.000,10302.000
11410.000,10939.000,10414.000
11569.000,11010.000,10317.000
11576.000,11001.000,10437.000
11534.000,10926.000,10435.000
11570.000,11003.000,10405.000
11546.000,10972.000,10332.000
11504.000,10967.000,10365.000
11575.000,10889.000,10280.000
11477.000,10956.000,10483.000
11505.000,10852.000,10409.000
11433.000,10954.000,10356.000
11548.000,10983.000,10352.000
11453.000,10875.000,10474.000
11461.000,10915.000,10415.000
11383.000,10887.000,10379.000
11493.000,10921.000,10240.000
11537.000,10860.000,10266.000
11400.000,10840.000,10251.000
11462.000,10768.000,10228.000
11289.000,10766.000,10241.000
11380.000,10711.000,10213.000
11387.000,10853.000,10122.000
11385.000,10774.000,10138.000
11453.000,10765.000,10181.000
11397.000,10792.000,10322.000
11364.000,10734.000,10170.000
11371.000,10646.000,10252.000
11344.000,10812.000,10188.000
11536.000,10704.000,10165.000
11506.000,10807.000,10279.000
11520.000,10782.000,10325.000
11541.000,10735.000,10204.000
11433.000,10831.000,10240.000
11639.000,10842.000,10341.000
11532.000,10966.000,10248.000
11592.000,10814.000,10240.000
11580.000,10868.000,10245.000
11611.000,10849.000,10261.000
11514.000,10926.000,10376.000
11480.000,10987.000,10296.000
11581.000,10890.000,10338.000
11539.000,10941.000,10399.000
11616.000,11026.000,10398.000
11574.000,10862.000,10293.000
11513.000,11046.000,10387.000
11749.000,10999.000,10360.000
11757.000,10963.000,10436.000
11701.000,11010.000,10571.000
11755.000,11195.000,10539.000
11812.000,11099.000,10672.000
11704.000,11189.000,10622.000
11841.000,11246.000,10707.000
11676.000,11248.000,10716.000
11694.000,11334.000,10636.000
11733.000,11192.000,10725.000
11643.000,11263.000,10745.000
11681.000,11279.000,10754.000
11672.000,11193.000,10811.000
11539.000,11154.000,10642.000
11588.000,11136.000,10538.000
11540.000,11251.000,10582.000
11711.000,11353.000,10695.000
11693.000,11346.000,10819.000
11704.000,11287.000,10756.000
11783.000,11318.000,10857.000
11758.000,11345.000,10919.000
11820.000,11491.000,10828.000
11870.000,11486.000,10821.000
11798.000,11479.000,10866.000
11773.000,11574.000,10905.000
11652.000,11303.000,10791.000
11700.000,11279.000,10687.000
11678.000,11225.000,10752.000
11712.000,11164.000,10647.000
11647.000,11054.000,10474.000
11586.000,10950.000,10592.000
11628.000,11034.000,10430.000
11511.000,10943.000,10328.000
11462.000,10915.000,10264.000
11500.000,10829.000,10274.000
11517.000,10947.000,10282.000
11610.000,10953.000,10215.000
11449.000,10946.000,10322.000
11473.000,10753.000,10295.000
11581.000,10835.000,10170.000
11496.000,10834.000,10294.000
11539.000,10828.000,10236.000
11553.000,10823.000,10226.000
11516.000,10696.000,10204.000
11435.000,10773.000,10265.000
11496.000,10835.000,10142.000
11412.000,10652.000,10145.000
11419.000,10818.000,10179.000
11454.000,10853.000,10130.000
11429.000,10697.000,10303.000
11348.000,10748.000,10268.000
11448.000,10767.000,10238.000
11433.000,10747.000,10224.000
11456.000,10830.000,10158.000
11521.000,10820.000,10154.000
11546.000,10908.000,10189.000
11513.000,10716.000,10256.000
11400.000,10712.000,10226.000
11592.000,10833.000,10171.000
11390.000,10743.000,10302.000
11551.000,10833.000,10237.000
11519.000,10751.000,10265.000
11492.000,10867.000,10188.000
11409.000,10819.000,10155.000
11454.000,10763.000,10102.000
11416.000,10781.000,10181.000
11482.000,10615.000,10121.000
11427.000,10863.000,10279.000
11379.000,10790.000,10127.000
11443.000,10733.000,10106.000
11479.000,10760.000,10218.000
11514.000,10714.000,10202.000
11468.000,10712.000,10238.000
11468.000,10890.000,10097.000
11597.000,10704.000,10188.000
11637.000,10762.000,10264.000
11624.000,10839.000,10218.000
11518.000,10903.000,10214.000
11616.000,10882.000,10202.000
11571.000,10835.000,10211.000
11638.000,10844.000,10189.000
11530.000,10798.000,10144.000
11544.000,10852.000,10286.000
11604.000,10788.000,10239.000
11457.000,10804.000,10168.000
11492.000,10654.000,10134.000
11415.000,10694.000,10105.000
11539.000,10717.000,10209.000
11594.000,10743.000,10296.000
11479.000,10844.000,10192.000
11421.000,10787.000,10099.000
11487.000,10778.000,10202.000
11370.000,10852.000,10166.000
11595.000,10848.000,10155.000
11657.000,10823.000,10243.000
11597.000,10863.000,10224.000
11548.000,10792.000,10180.000
11600.000,10863.000,10238.000
11681.000,10805.000,10191.000
11609.000,10993.000,10252.000
11600.000,10852.000,10236.000
11537.000,10750.000,10244.000
11620.000,10693.000,10319.000
11472.000,10878.000,10184.000
11511.000,10936.000,10264.000
11496.000,10721.000,10176.000
11423.000,10701.000,10287.000
11499.000,10896.000,10229.000
11566.000,10803.000,10226.000
11554.000,10822.000,10316.000
11464.000,10868.000,10465.000
11522.000,10843.000,10293.000
11543.000,10841.000,10351.000
11609.000,10940.000,10305.000
11545.000,10807.000,10237.000
11571.000,10887.000,10313.000
11557.000,10790.000,10270.000
11574.000,10799.000,10356.000
11636.000,10893.000,10391.000
11558.000,10874.000,10359.000
11651.000,10907.000,10269.000
11570.000,11001.000,10408.000
11577.000,10957.000,10455.000
11771.000,10960.000,10468.000
11646.000,10953.000,10467.000
11692.000,10969.000,10377.000
11550.000,10972.000,10523.000
11506.000,11005.000,10443.000
11570.000,10860.000,10432.000
11603.000,10881.000,10295.000
11462.000,10969.000,10428.000
11551.000,10851.000,10216.000
11564.000,10808.000,10270.000
11491.000,10885.000,10289.000
11575.000,10892.000,10285.000
11549.000,10865.000,10318.000
11563.000,10808.000,10314.000
11524.000,10813.000,10261.000
11473.000,10707.000,10311.000
11556.000,10844.000,10206.000
11613.000,10795.000,10247.000
11565.000,10781.000,10325.000
11660.000,10741.000,10252.000
11518.000,10810.000,10306.000
11526.000,10803.000,10248.000
11390.000,10782.000,10353.000
11530.000,10884.000,10398.000
11539.000,10881.000,10279.000
11495.000,10835.000,10317.000
11573.000,10727.000,10201.000
11497.000,10859.000,10278.000
11439.000,10812.000,10297.000
11546.000,10778.000,10227.000
11559.000,10790.000,10222.000
11563.000,10764.000,10250.000
11445.000,10683.000,10273.000
11422.000,10784.000,10165.000
11515.000,10734.000,10257.000
11493.000,10846.000,10212.000
11577.000,10817.000,10221.000
11580.000,10865.000,10281.000
11574.000,10861.000,10254.000
11552.000,10870.000,10238.000
11437.000,10784.000,10161.000
11557.000,10829.000,10191.000
11480.000,10785.000,10268.000
11514.000,10723.000,10304.000
11423.000,10771.000,10122.000
11457.000,10675.000,10211.000
11478.000,10741.000,10234.000
11432.000,10810.000,10114.000
11331.000,10699.000,10177.000
11383.000,10854.000,10225.000
11422.000,10849.000,10171.000
11290.000,10756.000,10187.000
11449.000,10769.000,10386.000
11384.000,10914.000,10455.000
11384.000,11027.000,10427.000
11403.000,11057.000,10444.000
11387.000,11146.000,10592.000
11454.000,11312.000,10617.000
11562.000,11261.000,10833.000
11582.000,11340.000,10732.000
11455.000,11361.000,10772.000
11563.000,11392.000,10766.000
11504.000,11381.000,10832.000
11616.000,11242.000,10693.000
11496.000,11255.000,10635.000
11472.000,11030.000,10526.000
11403.000,10993.000,10538.000
11455.000,10950.000,10446.000
11369.000,10923.000,10342.000
11430.000,10936.000,10423.000
11392.000,10991.000,10377.000
11463.000,10972.000,10344.000
11353.000,10853.000,10363.000
11275.000,10870.000,10421.000
11467.000,10942.000,10345.000
11435.000,10922.000,10334.000
11347.000,10859.000,10274.000
11470.000,10892.000,10413.000
11447.000,10820.000,10317.000
11472.000,10995.000,10383.000
11441.000,10914.000,10327.000
11417.000,10921.000,10399.000
11416.000,10895.000,10411.000
11511.000,10940.000,10501.000
11544.000,10996.000,10521.000
11545.000,11150.000,10512.000
11564.000,11111.000,10698.000
11593.000,11044.000,10529.000
11696.000,11154.000,10704.000
11621.000,11184.000,10621.000
11561.000,11125.000,10615.000
11647.000,11217.000,10641.000
11755.000,11364.000,10795.000
11684.000,11404.000,10760.000
11677.000,11377.000,10975.000
11695.000,11434.000,10952.000
11751.000,11546.000,11120.000
11787.000,11651.000,11275.000
11681.000,11740.000,11154.000
11789.000,11746.000,11219.000
11773.000,11723.000,11284.000
11840.000,11760.000,11276.000
11764.000,11693.000,11300.000
11752.000,11776.000,11321.000
11825.000,11596.000,11213.000
11751.000,11549.000,11253.000
11658.000,11770.000,11182.000
11779.000,11688.000,11233.000
11761.000,11560.000,11159.000
11744.000,11579.000,11166.000
11705.000,11486.000,11162.000
11692.000,11592.000,10970.000
11670.000,11579.000,11135.000
11640.000,11683.000,11112.000
11774.000,11749.000,11175.000
11796.000,11591.000,11119.000
11656.000,11714.000,11226.000
11778.000,11724.000,11237.000
11817.000,11726.000,11142.000
11690.000,11725.000,11232.000
11815.000,11770.000,11268.000
11696.000,11839.000,11275.000
11699.000,11587.000,11214.000
11614.000,11621.000,11117.000
11619.000,11698.000,11184.000
11623.000,11658.000,11124.000
11580.000,11463.000,11053.000
11593.000,11603.000,11171.000
11571.000,11545.000,11122.000
11600.000,11452.000,11101.000
11541.000,11495.000,11086.000
11606.000,11436.000,10913.000
11501.000,11468.000,11094.000
11574.000,11452.000,11007.000
11513.000,11411.000,10902.000
11525.000,11344.000,10895.000
11499.000,11425.000,10859.000
11543.000,11518.000,10901.000
11489.000,11488.000,11048.000
11483.000,11571.000,11192.000
11523.000,11735.000,11304.000
11692.000,11640.000,11168.000
11597.000,11589.000,11230.000
11473.000,11745.000,11227.000
11615.000,11618.000,11223.000
11433.000,11526.000,11121.000
11544.000,11473.000,11001.000
11541.000,11504.000,10878.000
11310.000,11383.000,10759.000
11439.000,11287.000,10745.000
11334.000,11114.000,10812.000
11247.000,11083.000,10693.000
11373.000,11132.000,10641.000
11369.000,11014.000,10491.000
11364.000,11002.000,10576.000
11360.000,11036.000,10512.000
11361.000,11069.000,10551.000
11423.000,10951.000,10550.000
11319.000,11056.000,10480.000
11287.000,10920.000,10436.000
11269.000,10967.000,10450.000
11268.000,10879.000,10306.000
11347.000,10805.000,10439.000
11328.000,10921.000,10414.000
11356.000,11039.000,10486.000
11354.000,10922.000,10349.000
11372.000,11052.000,10496.000
11381.000,10917.000,10393.000
11446.000,10910.000,10538.000
11443.000,10955.000,10525.000
11421.000,10983.000,10588.000
11300.000,10985.000,10509.000
11271.000,10979.000,10496.000
11315.000,10967.000,10562.000
11263.000,10982.000,10612.000
11425.000,11004.000,10567.000
11476.000,11067.000,10553.000
11387.000,11097.000,10629.000
11420.000,11198.000,10663.000
11338.000,11238.000,10753.000
11485.000,11144.000,10755.000
11404.000,11274.000,10777.000
11439.000,11261.000,10807.000
11617.000,11348.000,10895.000
11456.000,11301.000,10932.000
11512.000,11282.000,10870.000
11552.000,11357.000,10920.000
11470.000,11541.000,10973.000
11611.000,11462.000,10860.000
11544.000,11504.000,11153.000
11456.000,11416.000,10926.000
11370.000,11424.000,10976.000
11473.000,11380.000,11071.000
11314.000,11504.000,11044.000
11469.000,11461.000,11065.000
11513.000,11558.000,11120.000
11412.000,11703.000,11208.000
11473.000,11710.000,11163.000
11472.000,11796.000,11351.000
11381.000,11877.000,11327.000
11432.000,12016.000,11438.000
11404.000,12135.000,11629.000
11357.000,12156.000,11687.000
11412.000,12308.000,11915.000
11574.000,12354.000,11987.000
11574.000,12460.000,12061.000
11376.000,12655.000,12076.000
11417.000,12584.000,12127.000
11549.000,12607.000,12226.000
11697.000,12576.000,12145.000
11412.000,12661.000,12266.000
11520.000,12722.000,12330.000
11495.000,12640.000,12168.000
11560.000,12597.000,12183.000
11518.000,12624.000,12080.000
11452.000,12351.000,12143.000
11470.000,12350.000,12063.000
11346.000,12197.000,12000.000
11315.000,12149.000,11884.000
11328.000,11950.000,11592.000
11351.000,11951.000,11491.000
11181.000,11787.000,11357.000
11233.000,11713.000,11340.000
11203.000,11723.000,11132.000
11138.000,11577.000,11275.000
11112.000,11526.000,11185.000
11123.000,11434.000,10975.000
11207.000,11440.000,10991.000
11030.000,11452.000,11009.000
10997.000,11263.000,10979.000
10939.000,11406.000,10800.000
10918.000,11348.000,10725.000
10898.000,11124.000,10868.000
10978.000,11324.000,10837.000
10980.000,11218.000,10842.000
10981.000,11243.000,10698.000
11045.000,11176.000,10753.000
10895.000,11326.000,10686.000
11023.000,11205.000,10775.000
11049.000,11249.000,10779.000
11034.000,11514.000,10906.000
11059.000,11536.000,11149.000
11128.000,11692.000,11109.000
11168.000,11917.000,11415.000
11318.000,12157.000,11574.000
11289.000,12377.000,11855.000
11311.000,12565.000,12114.000
11479.000,12724.000,12390.000
11462.000,13144.000,12592.000
11451.000,13366.000,12906.000
11411.000,13587.000,13206.000
11529.000,13927.000,13601.000
11528.000,14170.000,13722.000
11542.000,14169.000,13794.000
11471.000,14341.000,13911.000
11490.000,14308.000,13860.000
11468.000,14229.000,13856.000
11507.000,14074.000,13745.000
11342.000,13595.000,13300.000
11275.000,13250.000,12952.000
11223.000,12933.000,12701.000
11078.000,12457.000,12427.000
11044.000,12528.000,12032.000
11050.000,12144.000,11731.000
11000.000,11940.000,11617.000
11063.000,11771.000,11588.000
11015.000,11783.000,11368.000
10848.000,11532.000,11100.000
10928.000,11615.000,11180.000
10814.000,11619.000,11188.000
10932.000,11510.000,11028.000
10889.000,11460.000,10874.000
10865.000,11334.000,10894.000
10831.000,11113.000,10812.000
10779.000,11069.000,10793.000
10772.000,11091.000,10612.000
10757.000,10835.000,10666.000
10696.000,10983.000,10475.000
10692.000,10763.000,10447.000
10643.000,10794.000,10395.000
10658.000,10652.000,10292.000
10593.000,10706.000,10303.000
10657.000,10579.000,10166.000
10539.000,10598.000,10117.000
10505.000,10564.000,10036.000
10534.000,10504.000,10085.000
10505.000,10392.000,10023.000
10416.000,10424.000,9923.000
10341.000,10366.000,9844.000
10411.000,10224.000,9861.000
10387.000,10352.000,9835.000
10495.000,10213.000,9777.000
10380.000,10140.000,9734.000
10339.000,10097.000,9779.000
10389.000,10223.000,9706.000
10311.000,10174.000,9780.000
10352.000,10152.000,9700.000
10362.000,10131.000,9714.000
10350.000,10118.000,9775.000
10345.000,10094.000,9783.000
10349.000,10170.000,9751.000
10370.000,10052.000,9724.000
10253.000,10145.000,9721.000
10301.000,10171.000,9816.000
10331.000,10176.000,9779.000
10314.000,10082.000,9851.000
10424.000,10094.000,9841.000
10335.000,10186.000,9800.000
10313.000,10033.000,9822.000
10206.000,10070.000,9733.000
10187.000,10021.000,9608.000
10246.000,10017.000,9739.000
10390.000,10032.000,9666.000
10232.000,10134.000,9669.000
10203.000,9946.000,9664.000
10194.000,9977.000,9605.000
10146.000,9955.000,9621.000
10011.000,9983.000,9642.000
10027.000,9997.000,9650.000
10032.000,9897.000,9659.000
10017.000,9992.000,9606.000
10003.000,10069.000,9620.000
10021.000,10036.000,9665.000
10060.000,10024.000,9591.000
10022.000,10054.000,9649.000
10084.000,9904.000,9548.000
10025.000,10043.000,9639.000
10079.000,9998.000,9622.000
10024.000,9992.000,9544.000
9973.000,9907.000,9615.000
9929.000,10006.000,9605.000
9996.000,9902.000,9544.000
9853.000,9843.000,9532.000
10004.000,9858.000,9456.000
9814.000,9832.000,9461.000
9969.000,9782.000,9530.000
9773.000,9753.000,9453.000
9705.000,9635.000,9345.000
9843.000,9674.000,9335.000
9881.000,9639.000,9278.000
9834.000,9544.000,9287.000
9758.000,9663.000,9193.000
9767.000,9475.000,9143.000
9804.000,9591.000,9101.000
9602.000,9489.000,9152.000
9676.000,9543.000,9130.000
9452.000,9502.000,9067.000
9624.000,9432.000,9024.000
9576.000,9454.000,9074.000
9557.000,9384.000,8973.000
9518.000,9485.000,9076.000
9498.000,9540.000,9093.000
9482.000,9684.000,9220.000
9594.000,9498.000,9317.000
9598.000,9632.000,9191.000
9596.000,9696.000,9302.000
9610.000,9649.000,9331.000
9592.000,9702.000,9419.000
9631.000,9794.000,9448.000
9564.000,9736.000,9463.000
9546.000,9757.000,9416.000
9664.000,9774.000,9349.000
9655.000,9781.000,9492.000
9465.000,9923.000,9527.000
9496.000,9751.000,9571.000
9507.000,9926.000,9542.000
9534.000,9896.000,9612.000
9515.000,10098.000,9655.000
9571.000,10052.000,9730.000
9510.000,10169.000,9883.000
9478.000,10216.000,10014.000
9487.000,10368.000,10003.000
9447.000,10411.000,10192.000
9408.000,10557.000,10288.000
9467.000,10572.000,10349.000
9427.000,10619.000,10343.000
9458.000,10700.000,10427.000
9425.000,10702.000,10642.000
9372.000,10810.000,10503.000
9307.000,10839.000,10615.000
9378.000,10807.000,10702.000
9321.000,10988.000,10716.000
9355.000,11047.000,10912.000
9398.000,11339.000,11070.000
9486.000,11760.000,11401.000
9647.000,12184.000,11766.000
9754.000,12606.000,12212.000
9942.000,13130.000,12806.000
10049.000,13798.000,13202.000
10005.000,14160.000,13756.000
9986.000,14496.000,14160.000
10092.000,14903.000,14528.000
10139.000,14916.000,14693.000
9993.000,14857.000,14527.000
9883.000,14365.000,14336.000
9768.000,14052.000,13847.000
9691.000,13628.000,13360.000
9621.000,12903.000,12867.000
9435.000,12615.000,12257.000
9379.000,11931.000,11592.000
9295.000,11446.000,11303.000
9042.000,11139.000,10929.000
9071.000,10867.000,10517.000
9000.000,10786.000,10428.000
8987.000,10654.000,10285.000
8995.000,10690.000,10346.000
8970.000,10603.000,10096.000
8997.000,10567.000,10203.000
8955.000,10471.000,10168.000
8933.000,10480.000,10069.000
8815.000,10422.000,10134.000
8794.000,10383.000,10112.000
8983.000,10410.000,10094.000
9029.000,10589.000,10230.000
9003.000,10643.000,10216.000
8986.000,10846.000,10421.000
9141.000,11201.000,10661.000
9108.000,11324.000,10998.000
9124.000,11731.000,11345.000
9261.000,12164.000,11725.000
9269.000,12539.000,12194.000
9399.000,12919.000,12529.000
9334.000,13198.000,12696.000
9436.000,13648.000,13336.000
9506.000,14054.000,13684.000
9543.000,14107.000,13913.000
9624.000,14524.000,14367.000
9665.000,14871.000,14538.000
9665.000,14976.000,14696.000
9773.000,14849.000,14542.000
9638.000,14653.000,14450.000
9696.000,14513.000,14224.000
9507.000,14109.000,13844.000
9482.000,13541.000,13303.000
9328.000,12819.000,12813.000
9248.000,12518.000,12198.000
9194.000,11940.000,11773.000
9008.000,11446.000,11320.000
8982.000,11016.000,10892.000
8836.000,10612.000,10399.000
8699.000,10267.000,9980.000
8591.000,9867.000,9639.000
8599.000,9740.000,9484.000
8617.000,9351.000,9209.000
8489.000,9212.000,8985.000
8399.000,9061.000,8853.000
8343.000,9008.000,8786.000
8445.000,8907.000,8597.000
8533.000,8768.000,8531.000
8494.000,8818.000,8488.000
8548.000,8765.000,8424.000
8485.000,8646.000,8488.000
8460.000,8782.000,8350.000
8442.000,8684.000,8390.000
8535.000,8639.000,8380.000
8419.000,8585.000,8272.000
8327.000,8491.000,8283.000
8344.000,8424.000,8188.000
8417.000,8439.000,8200.000
8358.000,8360.000,8075.000
8356.000,8306.000,8023.000
8263.000,8337.000,8016.000
8293.000,8243.000,7983.000
8386.000,8315.000,7918.000
8304.000,8267.000,8061.000
8318.000,8325.000,8000.000
8376.000,8273.000,7976.000
8330.000,8281.000,7991.000
8325.000,8293.000,7983.000
8378.000,8297.000,7897.000
8388.000,8229.000,7945.000
8355.000,8231.000,7957.000
8307.000,8271.000,7997.000
8253.000,8238.000,7971.000
8254.000,8193.000,7955.000
8200.000,8256.000,8032.000
8254.000,8341.000,8066.000
8209.000,8507.000,8174.000
8283.000,8403.000,8198.000
8273.000,8635.000,8166.000
8304.000,8701.000,8389.000
8403.000,8696.000,8479.000
8404.000,8819.000,8558.000
8497.000,8829.000,8514.000
8472.000,8911.000,8656.000
8472.000,8926.000,8671.000
8528.000,8953.000,8725.000
8570.000,8853.000,8774.000
8385.000,8951.000,8716.000
8428.000,9052.000,8815.000
8546.000,9101.000,9056.000
8497.000,9309.000,9029.000
8466.000,9457.000,9285.000
8501.000,9827.000,9627.000
8639.000,10140.000,9714.000
8774.000,10473.000,10150.000
8849.000,10733.000,10459.000
9004.000,10925.000,10631.000
8981.000,11279.000,10943.000
8978.000,11279.000,11084.000
9001.000,11342.000,11134.000
9005.000,11238.000,11045.000
8890.000,11031.000,11013.000
8930.000,10946.000,10775.000
8755.000,10895.000,10609.000
8811.000,10726.000,10674.000
8695.000,10866.000,10671.000
8692.000,10723.000,10683.000
8756.000,10973.000,10667.000
8735.000,10934.000,10819.000
8687.000,11115.000,10908.000
8797.000,11088.000,10904.000
8828.000,10927.000,10792.000
8716.000,10641.000,10596.000
8669.000,10514.000,10357.000
8740.000,10368.000,10131.000
8679.000,10189.000,9882.000
8747.000,9878.000,9739.000
8528.000,9703.000,9543.000
8496.000,9559.000,9420.000
8532.000,9568.000,9276.000
8529.000,9432.000,9321.000
8482.000,9465.000,9312.000
8504.000,9391.000,9277.000
8507.000,9459.000,9173.000
8503.000,9498.000,9284.000
8445.000,9401.000,9207.000
8498.000,9435.000,9300.000
8516.000,9338.000,9241.000
8436.000,9292.000,9195.000
8416.000,9309.000,9236.000
8448.000,9277.000,9099.000
8524.000,9303.000,9186.000
8507.000,9199.000,9159.000
8455.000,9306.000,9261.000
8476.000,9157.000,9058.000
8429.000,9143.000,8972.000
8446.000,9116.000,9033.000
8556.000,9091.000,8977.000
8541.000,9153.000,8999.000
8403.000,9105.000,8811.000
8564.000,9024.000,8859.000
8333.000,9030.000,8849.000
8453.000,8975.000,8686.000
8271.000,8814.000,8717.000
8328.000,8794.000,8494.000
8250.000,8742.000,8527.000
8321.000,8792.000,8514.000
8217.000,8650.000,8397.000
8246.000,8769.000,8423.000
8241.000,8625.000,8377.000
8192.000,8543.000,8407.000
8205.000,8606.000,8288.000
8193.000,8659.000,8343.000
8091.000,8536.000,8358.000
8121.000,8454.000,8224.000
8069.000,8412.000,8273.000
8125.000,8451.000,8205.000
8129.000,8483.000,8237.000
8175.000,8487.000,8192.000
8136.000,8419.000,8199.000
8125.000,8428.000,8201.000
8188.000,8431.000,8151.000
8098.000,8453.000,8211.000
8237.000,8532.000,8183.000
8164.000,8478.000,8119.000
8152.000,8373.000,8087.000
8171.000,8293.000,8042.000
8083.000,8317.000,7984.000
8137.000,8248.000,7946.000
8086.000,8111.000,7835.000
7866.000,8014.000,7805.000
7992.000,7953.000,7650.000
7792.000,7913.000,7595.000
7944.000,7837.000,7627.000
7931.000,7806.000,7496.000
7793.000,7676.000,7482.000
7763.000,7707.000,7386.000
7706.000,7596.000,7371.000
7714.000,7550.000,7337.000
7634.000,7636.000,7340.000
7701.000,7530.000,7327.000
7671.000,7587.000,7239.000
7727.000,7566.000,7260.000
7656.000,7522.000,7268.000
7681.000,7555.000,7197.000
7652.000,7616.000,7286.000
7671.000,7569.000,7260.000
7643.000,7536.000,7320.000
7657.000,7557.000,7194.000
7586.000,7566.000,7217.000
7673.000,7655.000,7343.000
7689.000,7532.000,7287.000
7632.000,7591.000,7291.000
7655.000,7502.000,7236.000
7653.000,7514.000,7321.000
7535.000,7532.000,7221.000
7618.000,7579.000,7271.000
7595.000,7436.000,7235.000
7560.000,7462.000,7206.000
7554.000,7479.000,7201.000
7532.000,7484.000,7196.000
7484.000,7489.000,7195.000
7511.000,7409.000,7167.000
7532.000,7388.000,7149.000
7453.000,7499.000,7085.000
7496.000,7437.000,7111.000
7427.000,7439.000,7201.000
7500.000,7371.000,7122.000
7423.000,7336.000,7094.000
7331.000,7346.000,7094.000
7354.000,7345.000,7047.000
7304.000,7358.000,7031.000
7333.000,7344.000,7057.000
7329.000,7380.000,6989.000
7343.000,7309.000,7055.000
7297.000,7398.000,7001.000
7331.000,7326.000,7070.000
7252.000,7245.000,6995.000
7281.000,7332.000,7097.000
7261.000,7325.000,7059.000
7203.000,7418.000,7117.000
7237.000,7446.000,7231.000
7276.000,7560.000,7212.000
7335.000,7489.000,7236.000
7285.000,7451.000,7211.000
7337.000,7450.000,7231.000
7354.000,7347.000,7132.000
7169.000,7269.000,7107.000
7276.000,7260.000,7006.000
7237.000,7281.000,6981.000
7256.000,7218.000,6782.000
7232.000,7107.000,6903.000
7228.000,7095.000,6822.000
7279.000,7077.000,6771.000
7241.000,7084.000,6744.000
7172.000,7022.000,6665.000
7085.000,6901.000,6617.000
7186.000,6850.000,6655.000
7146.000,6870.000,6579.000
7077.000,6789.000,6611.000
7028.000,6804.000,6553.000
7078.000,6790.000,6600.000
7087.000,6719.000,6521.000
7033.000,6769.000,6543.000
6927.000,6756.000,6490.000
6984.000,6786.000,6507.000
6923.000,6832.000,6444.000
6935.000,6793.000,6478.000
6970.000,6689.000,6521.000
6927.000,6689.000,6436.000
6953.000,6789.000,6462.000
6889.000,6863.000,6515.000
6916.000,6765.000,6513.000
6868.000,6821.000,6611.000
6970.000,6880.000,6652.000
6952.000,6868.000,6722.000
6970.000,6954.000,6724.000
6991.000,6904.000,6682.000
7011.000,7007.000,6835.000
7144.000,7010.000,6938.000
7099.000,7110.000,7035.000
7110.000,7195.000,7055.000
7182.000,7367.000,7082.000
7254.000,7331.000,7211.000
7180.000,7380.000,7159.000
7217.000,7495.000,7357.000
7296.000,7417.000,7286.000
7221.000,7519.000,7393.000
7265.000,7536.000,7461.000
7292.000,7545.000,7435.000
7209.000,7587.000,7538.000
7272.000,7628.000,7547.000
7309.000,7668.000,7530.000
7227.000,7684.000,7517.000
7216.000,7700.000,7567.000
7230.000,7630.000,7577.000
7120.000,7557.000,7524.000
7159.000,7535.000,7456.000
7192.000,7493.000,7522.000
7098.000,7501.000,7377.000
7087.000,7404.000,7409.000
7128.000,7397.000,7358.000
7061.000,7397.000,7294.000
7010.000,7318.000,7247.000
6983.000,7261.000,7175.000
6962.000,7251.000,7131.000
6874.000,7138.000,7101.000
6823.000,7106.000,6963.000
6826.000,7050.000,6846.000
6744.000,6923.000,6836.000
6801.000,6961.000,6830.000
6780.000,6913.000,6744.000
6632.000,6770.000,6700.000
6577.000,6757.000,6592.000
6593.000,6693.000,6566.000
6540.000,6668.000,6531.000
6533.000,6570.000,6456.000
6604.000,6489.000,6390.000
6559.000,6477.000,6302.000
6526.000,6490.000,6314.000
6498.000,6456.000,6241.000
6390.000,6351.000,6185.000
6385.000,6288.000,6096.000
6419.000,6229.000,6135.000
6400.000,6237.000,6042.000
6402.000,6374.000,6127.000
6346.000,6240.000,6039.000
6321.000,6148.000,5925.000
6308.000,6102.000,6006.000
6288.000,6114.000,5924.000
6223.000,6067.000,5879.000
6260.000,6060.000,5817.000
6192.000,6001.000,5894.000
6097.000,5995.000,5811.000
6160.000,5933.000,5772.000
6121.000,5902.000,5708.000
6089.000,5961.000,5721.000
6070.000,5911.000,5638.000
6107.000,5909.000,5665.000
6019.000,5811.000,5614.000
5959.000,5870.000,5564.000
5986.000,5836.000,5591.000
5962.000,5786.000,5570.000
5962.000,5732.000,5551.000
5895.000,5659.000,5569.000
5900.000,5734.000,5455.000
5900.000,5679.000,5512.000
5901.000,5680.000,5461.000
5819.000,5599.000,5389.000
5839.000,5613.000,5462.000
5755.000,5575.000,5381.000
5810.000,5615.000,5330.000
5771.000,5492.000,5342.000
5722.000,5471.000,5307.000
5792.000,5584.000,5298.000
5672.000,5512.000,5232.000
5735.000,5506.000,5195.000
5662.000,5464.000,5273.000
5667.000,5475.000,5208.000
5631.000,5462.000,5232.000
5554.000,5395.000,5230.000
5608.000,5463.000,5241.000
5640.000,5412.000,5238.000
5621.000,5431.000,5225.000
5683.000,5444.000,5233.000
5582.000,5443.000,5254.000
5583.000,5419.000,5100.000
5564.000,5455.000,5170.000
5567.000,5385.000,5236.000
5555.000,5380.000,5233.000
5583.000,5369.000,5105.000
5551.000,5361.000,5206.000
5571.000,5410.000,5197.000
5543.000,5449.000,5163.000
5592.000,5369.000,5190.000
5570.000,5438.000,5098.000
5451.000,5397.000,5106.000
5474.000,5322.000,5160.000
5525.000,5357.000,5141.000
5447.000,5329.000,5128.000
5414.000,5347.000,5116.000
5375.000,5271.000,5044.000
5392.000,5288.000,5059.000
5432.000,5251.000,5103.000
5361.000,5214.000,5058.000
5340.000,5184.000,5013.000
5301.000,5225.000,5000.000
5323.000,5230.000,5035.000
5238.000,5176.000,4944.000
5220.000,5188.000,4970.000
5242.000,5132.000,4979.000
5250.000,5185.000,4989.000
5106.000,5130.000,4877.000
5225.000,5152.000,4951.000
5144.000,5161.000,4944.000
5090.000,5152.000,4929.000
5149.000,5116.000,4905.000
5041.000,5032.000,4876.000
5082.000,5131.000,4875.000
5064.000,5074.000,4852.000
5014.000,5077.000,4930.000
5044.000,5027.000,4851.000
4958.000,5045.000,4885.000
4936.000,5099.000,4839.000
4953.000,5045.000,4876.000
4922.000,5102.000,4885.000
5008.000,5030.000,4897.000
4986.000,5092.000,4849.000
4949.000,5087.000,4867.000
4907.000,5114.000,4975.000
4945.000,5091.000,4942.000
5014.000,5135.000,5007.000
4916.000,5175.000,4951.000
4930.000,5210.000,5089.000
4940.000,5253.000,4993.000
4940.000,5193.000,5050.000
4921.000,5295.000,5024.000
4935.000,5321.000,5119.000
4933.000,5345.000,5227.000
4967.000,5318.000,5147.000
4884.000,5355.000,5166.000
4949.000,5408.000,5283.000
4939.000,5459.000,5274.000
4911.000,5472.000,5354.000
4893.000,5470.000,5332.000
4915.000,5573.000,5465.000
4927.000,5687.000,5510.000
4930.000,5737.000,5527.000
4904.000,5812.000,5629.000
4945.000,5947.000,5687.000
4845.000,6008.000,5806.000
4898.000,6146.000,6027.000
4952.000,6333.000,6232.000
4993.000,6545.000,6389.000
5065.000,6758.000,6660.000
5072.000,7024.000,6767.000
5180.000,7273.000,7211.000
5125.000,7615.000,7476.000
5247.000,7850.000,7767.000
5253.000,8260.000,7984.000
5300.000,8638.000,8468.000
5372.000,9072.000,8812.000
5401.000,9503.000,9158.000
5600.000,9890.000,9664.000
5566.000,10227.000,9988.000
5736.000,10741.000,10545.000
5762.000,11138.000,10958.000
5886.000,11723.000,11474.000
5935.000,12302.000,12151.000
6056.000,12832.000,12752.000
6207.000,13432.000,13355.000
6261.000,14158.000,13968.000
6436.000,14555.000,14547.000
6608.000,15283.000,15284.000
6626.000,15791.000,15580.000
6739.000,16106.000,15951.000
6798.000,16504.000,16440.000
6742.000,16650.000,16723.000
6709.000,16389.000,16495.000
6612.000,16008.000,16087.000
6649.000,15624.000,16027.000
6604.000,15192.000,15598.000
6384.000,14552.000,14891.000
6325.000,13990.000,14292.000
6139.000,13419.000,13533.000
5999.000,12595.000,12816.000
5781.000,11926.000,12184.000
5701.000,11206.000,11517.000
5580.000,10671.000,10935.000
5417.000,10025.000,10264.000
5335.000,9453.000,9711.000
5251.000,8866.000,9174.000
5081.000,8372.000,8737.000
5027.000,8095.000,8411.000
4874.000,7711.000,8046.000
4880.000,7324.000,7597.000
4724.000,7029.000,7246.000
4614.000,6738.000,6917.000
4602.000,6472.000,6645.000
4543.000,6315.000,6478.000
4503.000,6080.000,6155.000
4435.000,5801.000,5829.000
4339.000,5677.000,5673.000
4264.000,5532.000,5585.000
4229.000,5287.000,5458.000
4227.000,5202.000,5253.000
4192.000,5152.000,5150.000
4171.000,5095.000,5066.000
4159.000,4990.000,5008.000
4142.000,4973.000,4979.000
4133.000,4912.000,4940.000
4119.000,4955.000,4843.000
4064.000,4871.000,4820.000
4089.000,4848.000,4787.000
4064.000,4842.000,4819.000
4071.000,4839.000,4801.000
4151.000,4828.000,4792.000
4066.000,4839.000,4825.000
4120.000,4748.000,4818.000
4031.000,4714.000,4712.000
4048.000,4680.000,4595.000
4051.000,4605.000,4583.000
4027.000,4657.000,4599.000
4029.000,4571.000,4568.000
4047.000,4583.000,4423.000
4017.000,4395.000,4504.000
4000.000,4431.000,4354.000
3995.000,4310.000,4292.000
3942.000,4294.000,4213.000
3941.000,4217.000,4131.000
3926.000,4205.000,4088.000
3924.000,4173.000,4111.000
3904.000,4157.000,4063.000
3871.000,4091.000,3970.000
3844.000,4096.000,3936.000
3892.000,4002.000,3912.000
3791.000,3908.000,3864.000
3822.000,3928.000,3900.000
3819.000,3908.000,3865.000
3761.000,3890.000,3787.000
3746.000,3798.000,3803.000
3778.000,3879.000,3758.000
3735.000,3804.000,3717.000
3782.000,3829.000,3747.000
3761.000,3813.000,3803.000
3745.000,3769.000,3761.000
3791.000,3780.000,3759.000
3840.000,3864.000,3755.000
3778.000,3783.000,3708.000
3789.000,3779.000,3780.000
3770.000,3822.000,3824.000
3804.000,3804.000,3757.000
3842.000,3819.000,3745.000
3761.000,3757.000,3721.000
3839.000,3799.000,3773.000
3828.000,3776.000,3740.000
3761.000,3717.000,3662.000
3786.000,3673.000,3683.000
3815.000,3695.000,3615.000
3805.000,3709.000,3578.000
3745.000,3708.000,3568.000
3733.000,3634.000,3559.000
3771.000,3683.000,3580.000
3718.000,3640.000,3587.000
3701.000,3610.000,3513.000
3730.000,3662.000,3513.000
3694.000,3592.000,3474.000
3592.000,3579.000,3475.000
3640.000,3584.000,3488.000
3622.000,3540.000,3416.000
3587.000,3560.000,3400.000
3657.000,3481.000,3369.000
3581.000,3508.000,3363.000
3583.000,3464.000,3350.000
3583.000,3471.000,3363.000
3575.000,3443.000,3310.000
3561.000,3432.000,3322.000
3529.000,3399.000,3320.000
3535.000,3451.000,3329.000
3548.000,3428.000,3347.000
3567.000,3408.000,3321.000
3577.000,3426.000,3341.000
3552.000,3485.000,3316.000
3589.000,3428.000,3343.000
3590.000,3450.000,3341.000
3531.000,3427.000,3311.000
3606.000,3435.000,3323.000
3634.000,3456.000,3359.000
3671.000,3490.000,3355.000
3610.000,3504.000,3344.000
3650.000,3449.000,3349.000
3623.000,3520.000,3391.000
3610.000,3442.000,3339.000
3602.000,3446.000,3340.000
3611.000,3475.000,3372.000
3615.000,3469.000,3366.000
3586.000,3426.000,3337.000
3543.000,3456.000,3292.000
3607.000,3443.000,3371.000
3591.000,3412.000,3327.000
3591.000,3487.000,3312.000
3598.000,3459.000,3289.000
3543.000,3409.000,3301.000
3535.000,3435.000,3285.000
3557.000,3416.000,3243.000
3544.000,3382.000,3303.000
3561.000,3446.000,3266.000
3522.000,3396.000,3265.000
3505.000,3403.000,3257.000
3516.000,3373.000,3261.000
3488.000,3374.000,3274.000
3575.000,3336.000,3184.000
3451.000,3360.000,3212.000
3454.000,3391.000,3187.000
3484.000,3310.000,3216.000
3547.000,3305.000,3217.000
3455.000,3339.000,3221.000
3494.000,3292.000,3179.000
3480.000,3336.000,3217.000
3420.000,3332.000,3210.000
3464.000,3350.000,3193.000
3472.000,3335.000,3239.000
3475.000,3310.000,3225.000
3444.000,3346.000,3203.000
3466.000,3314.000,3156.000
3492.000,3342.000,3167.000
3460.000,3389.000,3228.000
3483.000,3325.000,3242.000
3487.000,3364.000,3182.000
3474.000,3365.000,3199.000
3529.000,3323.000,3226.000
3564.000,3377.000,3267.000
3520.000,3371.000,3248.000
3554.000,3412.000,3236.000
3530.000,3364.000,3277.000
3523.000,3377.000,3292.000
3518.000,3382.000,3271.000
3550.000,3421.000,3253.000
3526.000,3375.000,3274.000
3516.000,3381.000,3223.000
3478.000,3406.000,3219.000
3497.000,3389.000,3361.000
3503.000,3403.000,3259.000
3530.000,3385.000,3255.000
3522.000,3380.000,3253.000
3546.000,3365.000,3245.000
3463.000,3366.000,3222.000
3486.000,3311.000,3235.000
3458.000,3347.000,3265.000
3480.000,3338.000,3236.000
3435.000,3332.000,3207.000
3448.000,3319.000,3186.000
3465.000,3356.000,3202.000
3398.000,3256.000,3139.000
3416.000,3246.000,3189.000
3406.000,3254.000,3211.000
3357.000,3313.000,3131.000
3422.000,3242.000,3157.000
3341.000,3260.000,3131.000
3394.000,3251.000,3139.000
3385.000,3216.000,3139.000
3414.000,3292.000,3107.000
3364.000,3263.000,3119.000
3406.000,3277.000,3183.000
3369.000,3256.000,3205.000
3464.000,3275.000,3201.000
3407.000,3335.000,3168.000
3391.000,3291.000,3164.000
3470.000,3351.000,3197.000
3399.000,3291.000,3233.000
3452.000,3302.000,3151.000
3418.000,3325.000,3132.000
3455.000,3297.000,3190.000
3461.000,3343.000,3234.000
3419.000,3287.000,3188.000
3427.000,3332.000,3152.000
3411.000,3279.000,3136.000
3475.000,3246.000,3180.000
3385.000,3249.000,3154.000
3376.000,3284.000,3125.000
3388.000,3285.000,3165.000
3390.000,3257.000,3166.000
3404.000,3197.000,3138.000
3357.000,3274.000,3163.000
3342.000,3197.000,3074.000
3352.000,3196.000,3133.000
3344.000,3188.000,3112.000
3320.000,3158.000,3099.000
3307.000,3187.000,3051.000
3327.000,3195.000,3062.000
3300.000,3222.000,3092.000
3309.000,3150.000,3020.000
3316.000,3166.000,3015.000
3312.000,3140.000,3059.000
3272.000,3192.000,3052.000
3264.000,3172.000,3043.000
3293.000,3203.000,3001.000
3312.000,3196.000,3033.000
3300.000,3146.000,3030.000
3313.000,3184.000,3041.000
3326.000,3198.000,3050.000
3290.000,3235.000,3111.000
3348.000,3204.000,3095.000
3376.000,3221.000,3111.000
3407.000,3181.000,3143.000
3343.000,3231.000,3085.000
3340.000,3186.000,3096.000
3335.000,3221.000,3049.000
3400.000,3183.000,3100.000
3352.000,3210.000,3062.000
3336.000,3162.000,3058.000
3317.000,3177.000,3088.000
3375.000,3168.000,3098.000
3309.000,3187.000,3030.000
3331.000,3165.000,3048.000
3329.000,3145.000,3050.000
3316.000,3160.000,3074.000
3253.000,3118.000,3014.000
3268.000,3132.000,2996.000
3270.000,3095.000,3011.000
3243.000,3128.000,2973.000
3198.000,3109.000,3010.000
3260.000,3060.000,2983.000
3215.000,3067.000,2942.000
3194.000,3076.000,2977.000
3179.000,3050.000,2910.000
3171.000,3055.000,2917.000
3148.000,3015.000,2938.000
3139.000,3023.000,2880.000
3165.000,3020.000,2929.000
3183.000,3021.000,2984.000
3184.000,3027.000,2913.000
3183.000,3043.000,2943.000
3195.000,2980.000,2930.000
3170.000,3045.000,2926.000
3179.000,3021.000,2913.000
3150.000,3040.000,2909.000
3173.000,2980.000,2956.000
3196.000,3051.000,2919.000
3197.000,3053.000,2942.000
3187.000,3017.000,2912.000
3139.000,3022.000,2906.000
3205.000,3052.000,2910.000
3190.000,3024.000,2930.000
3148.000,3052.000,2906.000
3187.000,3035.000,2955.000
3169.000,2993.000,2935.000
3148.000,3034.000,2910.000
3146.000,3004.000,2905.000
3143.000,2969.000,2936.000
3156.000,3000.000,2859.000
3170.000,3033.000,2877.000
3131.000,2974.000,2841.000
3090.000,2938.000,2867.000
3148.000,3014.000,2852.000
3084.000,2969.000,2825.000
3112.000,2895.000,2821.000
3050.000,2946.000,2840.000
3063.000,2968.000,2845.000
3089.000,2891.000,2819.000
3031.000,2874.000,2802.000
3038.000,2944.000,2836.000
3012.000,2875.000,2761.000
2976.000,2874.000,2745.000
3029.000,2858.000,2782.000
2997.000,2837.000,2733.000
2976.000,2879.000,2713.000
2955.000,2874.000,2753.000
2968.000,2829.000,2758.000
2964.000,2842.000,2729.000
2966.000,2804.000,2741.000
2912.000,2812.000,2662.000
2941.000,2811.000,2706.000
2912.000,2764.000,2694.000
2887.000,2762.000,2657.000
2920.000,2767.000,2666.000
2898.000,2767.000,2680.000
2910.000,2771.000,2685.000
2967.000,2775.000,2684.000
2911.000,2763.000,2691.000
2905.000,2799.000,2671.000
2928.000,2806.000,2693.000
2908.000,2767.000,2711.000
2931.000,2810.000,2703.000
2920.000,2796.000,2697.000
2941.000,2818.000,2719.000
2900.000,2757.000,2663.000
2932.000,2790.000,2679.000
2915.000,2743.000,2685.000
2886.000,2745.000,2671.000
2926.000,2743.000,2673.000
2905.000,2751.000,2656.000
2852.000,2756.000,2633.000
2872.000,2756.000,2641.000
2906.000,2721.000,2633.000
2851.000,2730.000,2670.000
2871.000,2757.000,2614.000
2836.000,2726.000,2619.000
2855.000,2719.000,2644.000
2815.000,2742.000,2590.000
2863.000,2737.000,2595.000
2772.000,2677.000,2611.000
2821.000,2683.000,2599.000
2832.000,2678.000,2559.000
2773.000,2687.000,2565.000
2755.000,2666.000,2542.000
2745.000,2641.000,2532.000
2734.000,2635.000,2516.000
2725.000,2626.000,2564.000
2742.000,2581.000,2525.000
2688.000,2605.000,2483.000
2734.000,2611.000,2516.000
2699.000,2594.000,2456.000
2691.000,2579.000,2468.000
2663.000,2572.000,2487.000
2633.000,2552.000,2495.000
2683.000,2534.000,2471.000
2690.000,2534.000,2465.000
2638.000,2536.000,2473.000
2670.000,2557.000,2447.000
2632.000,2535.000,2427.000
2642.000,2534.000,2433.000
2656.000,2554.000,2474.000
2665.000,2538.000,2416.000
2628.000,2560.000,2472.000
2650.000,2547.000,2435.000
2677.000,2539.000,2470.000
2623.000,2548.000,2416.000
2619.000,2538.000,2459.000
2617.000,2553.000,2470.000
2647.000,2548.000,2452.000
2660.000,2536.000,2431.000
2649.000,2551.000,2412.000
2634.000,2551.000,2432.000
2628.000,2508.000,2464.000
2623.000,2539.000,2438.000
2623.000,2499.000,2462.000
2628.000,2513.000,2405.000
2598.000,2483.000,2426.000
2617.000,2509.000,2407.000
2602.000,2499.000,2399.000
2615.000,2489.000,2420.000
2596.000,2480.000,2423.000
2583.000,2454.000,2410.000
2584.000,2428.000,2367.000
2588.000,2450.000,2393.000
2526.000,2452.000,2371.000
2544.000,2439.000,2324.000
2537.000,2467.000,2368.000
2533.000,2422.000,2325.000
2519.000,2404.000,2329.000
2510.000,2386.000,2325.000
2502.000,2369.000,2304.000
2490.000,2351.000,2307.000
2463.000,2369.000,2313.000
2452.000,2367.000,2294.000
2447.000,2358.000,2274.000
2423.000,2352.000,2296.000
2416.000,2346.000,2264.000
2438.000,2363.000,2275.000
2412.000,2311.000,2256.000
2385.000,2336.000,2241.000
2405.000,2296.000,2221.000
2401.000,2273.000,2215.000
2404.000,2286.000,2217.000
2384.000,2321.000,2231.000
2367.000,2263.000,2199.000
2356.000,2275.000,2243.000
2378.000,2278.000,2222.000
2356.000,2286.000,2235.000
2376.000,2246.000,2188.000
2384.000,2254.000,2237.000
2336.000,2272.000,2218.000
2323.000,2280.000,2204.000
2353.000,2279.000,2192.000
2318.000,2276.000,2156.000
2356.000,2294.000,2181.000
2351.000,2266.000,2229.000
2380.000,2246.000,2199.000
2359.000,2237.000,2198.000
2330.000,2265.000,2180.000
2356.000,2263.000,2186.000
2307.000,2270.000,2166.000
2341.000,2234.000,2207.000
2295.000,2242.000,2186.000
2300.000,2250.000,2170.000
2321.000,2211.000,2188.000
2314.000,2233.000,2157.000
2292.000,2221.000,2144.000
2295.000,2209.000,2125.000
2315.000,2217.000,2122.000
2258.000,2199.000,2122.000
2274.000,2190.000,2097.000
2235.000,2167.000,2116.000
2248.000,2167.000,2083.000
2208.000,2146.000,2065.000
2218.000,2164.000,2086.000
2197.000,2147.000,2080.000
2220.000,2136.000,2066.000
2194.000,2126.000,2075.000
2180.000,2131.000,2064.000
2202.000,2108.000,2048.000
2191.000,2083.000,2058.000
2185.000,2098.000,2035.000
2138.000,2091.000,2007.000
2118.000,2074.000,2031.000
2120.000,2062.000,2018.000
2140.000,2057.000,2015.000
2113.000,2033.000,2015.000
2103.000,2046.000,1983.000
2131.000,2041.000,1973.000
2098.000,2024.000,1974.000
2091.000,2034.000,1990.000
2119.000,2008.000,1952.000
2110.000,2037.000,1977.000
2085.000,2013.000,1987.000
2096.000,2022.000,1976.000
2089.000,2023.000,1960.000
2070.000,2033.000,1970.000
2051.000,1983.000,1980.000
2077.000,2021.000,1959.000
2086.000,1986.000,1963.000
2077.000,2020.000,1959.000
2110.000,2014.000,1933.000
2054.000,1967.000,1939.000
2062.000,2001.000,1917.000
2052.000,1995.000,1947.000
2082.000,1998.000,1943.000
2033.000,1992.000,1957.000
2028.000,1979.000,1946.000
2030.000,1955.000,1917.000
2024.000,1946.000,1916.000
2030.000,1981.000,1926.000
2016.000,1952.000,1910.000
2028.000,1947.000,1917.000
2019.000,1979.000,1945.000
2028.000,1919.000,1911.000
1992.000,1901.000,1888.000
2002.000,1939.000,1876.000
1963.000,1914.000,1864.000
2006.000,1913.000,1849.000
1980.000,1906.000,1867.000
1943.000,1918.000,1878.000
1971.000,1901.000,1895.000
1963.000,1887.000,1847.000
1979.000,1893.000,1844.000
1923.000,1867.000,1809.000
1918.000,1847.000,1815.000
1919.000,1870.000,1829.000
1897.000,1835.000,1791.000
