Focus Mode,Read Mode,Exposure Time (sec),Number of Frames,Start Y,End Y,Date,Time,Position (microns)
Single Acquisition,Spectrum,20.000000,3,105,125,2/11/2021,5:21:02 PM,-3494.010000,0.000000,221.990000,

1264.000,1263.000,1267.000
1271.000,1263.000,1263.000
1260.000,1264.000,1264.000
1271.000,1269.000,1264.000
1264.000,1267.000,1264.000
1263.000,1262.000,1262.000
1259.000,1269.000,1261.000
1265.000,1262.000,1262.000
1270.000,1268.000,1259.000
1270.000,1261.000,1266.000
1268.000,1265.000,1265.000
1266.000,1273.000,1261.000
1263.000,1259.000,1264.000
1267.000,1270.000,1266.000
1259.000,1259.000,1271.000
1261.000,1269.000,1275.000
1271.000,1270.000,1270.000
1270.000,1267.000,1272.000
1276.000,1275.000,1276.000
1275.000,1276.000,1266.000
1275.000,1266.000,1277.000
1270.000,1278.000,1278.000
1275.000,1280.000,1278.000
1277.000,1282.000,1280.000
1278.000,1290.000,1287.000
1287.000,1292.000,1281.000
1288.000,1301.000,1283.000
1283.000,1292.000,1282.000
1286.000,1295.000,1286.000
1293.000,1288.000,1290.000
1301.000,1303.000,1289.000
1298.000,1301.000,1291.000
1291.000,1294.000,1297.000
1303.000,1312.000,1299.000
1301.000,1313.000,1303.000
1309.000,1306.000,1305.000
1315.000,1304.000,1308.000
1310.000,1310.000,1318.000
1313.000,1313.000,1305.000
1313.000,1309.000,1305.000
1320.000,1325.000,1329.000
1319.000,1327.000,1320.000
1322.000,1339.000,1327.000
1328.000,1333.000,1339.000
1336.000,1338.000,1343.000
1325.000,1335.000,1330.000
1340.000,1354.000,1353.000
1361.000,1341.000,1346.000
1364.000,1356.000,1354.000
1365.000,1371.000,1354.000
1375.000,1354.000,1370.000
1379.000,1382.000,1365.000
1369.000,1387.000,1370.000
1376.000,1377.000,1389.000
1385.000,1397.000,1382.000
1402.000,1389.000,1404.000
1392.000,1400.000,1391.000
1390.000,1396.000,1393.000
1393.000,1401.000,1408.000
1412.000,1415.000,1412.000
1402.000,1412.000,1411.000
1390.000,1403.000,1409.000
1418.000,1425.000,1412.000
1413.000,1407.000,1414.000
1425.000,1408.000,1423.000
1426.000,1421.000,1415.000
1423.000,1443.000,1447.000
1435.000,1442.000,1446.000
1440.000,1450.000,1475.000
1471.000,1473.000,1446.000
1477.000,1468.000,1467.000
1486.000,1487.000,1491.000
1487.000,1495.000,1494.000
1508.000,1519.000,1497.000
1536.000,1534.000,1528.000
1542.000,1557.000,1554.000
1559.000,1556.000,1539.000
1553.000,1594.000,1568.000
1570.000,1566.000,1574.000
1606.000,1587.000,1578.000
1628.000,1611.000,1599.000
1619.000,1638.000,1628.000
1621.000,1631.000,1615.000
1628.000,1614.000,1636.000
1664.000,1642.000,1657.000
1653.000,1646.000,1643.000
1663.000,1682.000,1652.000
1674.000,1680.000,1683.000
1696.000,1713.000,1691.000
1723.000,1710.000,1698.000
1723.000,1715.000,1728.000
1727.000,1755.000,1775.000
1771.000,1783.000,1759.000
1777.000,1785.000,1820.000
1809.000,1834.000,1823.000
1844.000,1841.000,1879.000
1888.000,1900.000,1896.000
1939.000,1929.000,1931.000
2008.000,2050.000,1970.000
2071.000,2083.000,2100.000
2175.000,2152.000,2151.000
2217.000,2268.000,2206.000
2325.000,2352.000,2301.000
2441.000,2449.000,2415.000
2487.000,2498.000,2519.000
2556.000,2562.000,2510.000
2566.000,2581.000,2566.000
2554.000,2613.000,2555.000
2643.000,2637.000,2601.000
2672.000,2675.000,2659.000
2673.000,2731.000,2668.000
2683.000,2671.000,2671.000
2687.000,2720.000,2714.000
2675.000,2710.000,2655.000
2767.000,2766.000,2724.000
2807.000,2798.000,2834.000
2895.000,2939.000,2924.000
3020.000,3035.000,2992.000
3207.000,3231.000,3201.000
3469.000,3515.000,3522.000
3975.000,4063.000,3984.000
4826.000,4939.000,4911.000
6738.000,6869.000,7010.000
12053.000,12659.000,12989.000
28768.000,33161.000,32009.000
61815.000,61770.000,61787.000
62226.000,62223.000,62231.000
62143.000,62134.000,62140.000
62084.000,62088.000,62090.000
62093.000,62098.000,62095.000
62089.000,62080.000,62092.000
62067.000,62069.000,62070.000
62058.000,62063.000,62067.000
62067.000,62064.000,62069.000
62059.000,62056.000,62061.000
62052.000,62062.000,62062.000
62052.000,62054.000,62058.000
62054.000,62054.000,62058.000
62052.000,62050.000,62056.000
62053.000,62054.000,62054.000
62055.000,62053.000,62054.000
62050.000,62048.000,62056.000
62052.000,62051.000,62051.000
62047.000,62048.000,62054.000
62050.000,62052.000,62050.000
62047.000,62048.000,62051.000
62046.000,62049.000,62054.000
62046.000,62045.000,62050.000
62047.000,62045.000,62054.000
62049.000,62045.000,62050.000
62044.000,62040.000,62051.000
62044.000,62046.000,62051.000
62047.000,62049.000,62047.000
62044.000,62046.000,62048.000
62040.000,62051.000,62048.000
62048.000,62050.000,62053.000
62048.000,62048.000,62050.000
62044.000,62046.000,62049.000
62047.000,62046.000,62056.000
62047.000,62042.000,62050.000
62045.000,62046.000,62056.000
62043.000,62044.000,62053.000
62047.000,62048.000,62051.000
62048.000,62049.000,62050.000
62048.000,62049.000,62052.000
62045.000,62050.000,62053.000
62048.000,62042.000,62048.000
62045.000,62045.000,62046.000
62046.000,62049.000,62053.000
62050.000,62053.000,62052.000
62044.000,62044.000,62052.000
62052.000,62043.000,62053.000
62051.000,62050.000,62057.000
62048.000,62051.000,62053.000
62062.000,62061.000,62068.000
62078.000,62077.000,62086.000
47395.000,65535.000,47903.000
1645.000,1672.000,1648.000
1571.000,1561.000,1544.000
1537.000,1545.000,1544.000
1529.000,1535.000,1539.000
1508.000,1507.000,1518.000
1511.000,1495.000,1517.000
1487.000,1499.000,1500.000
1490.000,1489.000,1502.000
1471.000,1466.000,1488.000
1476.000,1476.000,1459.000
1469.000,1461.000,1469.000
1470.000,1438.000,1436.000
1440.000,1444.000,1458.000
1440.000,1435.000,1442.000
1449.000,1435.000,1424.000
1440.000,1439.000,1435.000
1416.000,1415.000,1425.000
1420.000,1410.000,1411.000
1403.000,1408.000,1424.000
1415.000,1409.000,1412.000
1399.000,1423.000,1407.000
1408.000,1402.000,1410.000
1399.000,1415.000,1391.000
1393.000,1399.000,1394.000
1404.000,1401.000,1388.000
1387.000,1402.000,1391.000
1382.000,1402.000,1388.000
1381.000,1388.000,1400.000
1389.000,1386.000,1374.000
1371.000,1377.000,1384.000
1378.000,1374.000,1383.000
1375.000,1386.000,1392.000
1377.000,1367.000,1372.000
1369.000,1361.000,1377.000
1374.000,1373.000,1363.000
1369.000,1363.000,1364.000
1358.000,1350.000,1362.000
1351.000,1343.000,1347.000
1344.000,1354.000,1357.000
1346.000,1355.000,1360.000
1354.000,1347.000,1357.000
1353.000,1342.000,1343.000
1347.000,1341.000,1353.000
1333.000,1351.000,1351.000
1337.000,1343.000,1346.000
1344.000,1329.000,1339.000
1336.000,1341.000,1339.000
1332.000,1333.000,1340.000
1330.000,1333.000,1338.000
1328.000,1333.000,1328.000
1337.000,1331.000,1319.000
1321.000,1324.000,1323.000
1327.000,1335.000,1324.000
1333.000,1315.000,1321.000
1334.000,1329.000,1317.000
1333.000,1325.000,1320.000
1333.000,1321.000,1331.000
1314.000,1322.000,1327.000
1318.000,1321.000,1328.000
1324.000,1316.000,1321.000
1331.000,1323.000,1317.000
1324.000,1327.000,1314.000
1319.000,1319.000,1323.000
1323.000,1322.000,1320.000
1316.000,1306.000,1319.000
1311.000,1315.000,1320.000
1320.000,1312.000,1310.000
1310.000,1311.000,1302.000
1308.000,1309.000,1301.000
1309.000,1307.000,1308.000
1299.000,1301.000,1307.000
1291.000,1310.000,1303.000
1308.000,1300.000,1305.000
1299.000,1312.000,1308.000
1297.000,1305.000,1304.000
1309.000,1304.000,1300.000
1298.000,1297.000,1304.000
1310.000,1296.000,1292.000
1300.000,1302.000,1298.000
1297.000,1296.000,1303.000
1299.000,1296.000,1306.000
1303.000,1295.000,1291.000
1302.000,1296.000,1302.000
1304.000,1298.000,1303.000
1298.000,1293.000,1305.000
1293.000,1301.000,1292.000
1291.000,1292.000,1289.000
1279.000,1294.000,1300.000
1299.000,1299.000,1297.000
1294.000,1292.000,1290.000
1291.000,1286.000,1285.000
1286.000,1278.000,1287.000
1294.000,1302.000,1292.000
1280.000,1296.000,1284.000
1287.000,1289.000,1292.000
1285.000,1291.000,1291.000
1287.000,1291.000,1283.000
1287.000,1290.000,1293.000
1287.000,1286.000,1286.000
1304.000,1292.000,1294.000
1295.000,1284.000,1286.000
1290.000,1298.000,1295.000
1295.000,1297.000,1287.000
1293.000,1297.000,1279.000
1301.000,1299.000,1296.000
1291.000,1291.000,1304.000
1299.000,1295.000,1290.000
1288.000,1296.000,1297.000
1307.000,1298.000,1307.000
1293.000,1302.000,1303.000
1305.000,1299.000,1294.000
1302.000,1312.000,1314.000
1312.000,1316.000,1316.000
1316.000,1311.000,1318.000
1314.000,1318.000,1322.000
1317.000,1323.000,1326.000
1334.000,1337.000,1327.000
1343.000,1340.000,1330.000
1364.000,1329.000,1350.000
1360.000,1346.000,1352.000
1365.000,1369.000,1367.000
1378.000,1387.000,1392.000
1403.000,1402.000,1392.000
1434.000,1423.000,1427.000
1451.000,1467.000,1450.000
1501.000,1471.000,1478.000
1524.000,1503.000,1510.000
1567.000,1559.000,1549.000
1604.000,1604.000,1595.000
1674.000,1670.000,1665.000
1736.000,1725.000,1721.000
1792.000,1797.000,1802.000
1920.000,1904.000,1892.000
2009.000,1993.000,1999.000
2156.000,2143.000,2149.000
2290.000,2297.000,2267.000
2432.000,2463.000,2402.000
2627.000,2630.000,2628.000
2857.000,2827.000,2836.000
3064.000,3023.000,3087.000
3343.000,3316.000,3286.000
3572.000,3575.000,3566.000
3777.000,3786.000,3868.000
4070.000,4030.000,4043.000
4371.000,4277.000,4297.000
4604.000,4506.000,4577.000
4811.000,4742.000,4701.000
5010.000,5051.000,4966.000
5144.000,5088.000,5049.000
5285.000,5312.000,5248.000
5427.000,5323.000,5391.000
5479.000,5425.000,5489.000
5579.000,5491.000,5535.000
5607.000,5529.000,5523.000
5635.000,5550.000,5592.000
5597.000,5579.000,5621.000
5680.000,5655.000,5599.000
5616.000,5566.000,5614.000
5676.000,5582.000,5598.000
5590.000,5639.000,5559.000
5613.000,5609.000,5568.000
5701.000,5580.000,5639.000
5596.000,5598.000,5574.000
5617.000,5609.000,5576.000
5661.000,5545.000,5499.000
5648.000,5592.000,5572.000
5583.000,5627.000,5579.000
5599.000,5622.000,5546.000
5589.000,5653.000,5618.000
5627.000,5619.000,5572.000
5583.000,5630.000,5538.000
5655.000,5508.000,5570.000
5598.000,5561.000,5591.000
5686.000,5586.000,5574.000
5598.000,5583.000,5540.000
5631.000,5620.000,5561.000
5595.000,5511.000,5571.000
5636.000,5649.000,5536.000
5647.000,5544.000,5661.000
5646.000,5560.000,5579.000
5597.000,5479.000,5557.000
5620.000,5584.000,5554.000
5596.000,5569.000,5578.000
5644.000,5644.000,5487.000
5660.000,5592.000,5597.000
5634.000,5545.000,5537.000
5588.000,5655.000,5628.000
5609.000,5618.000,5592.000
5542.000,5535.000,5600.000
5631.000,5662.000,5522.000
5662.000,5587.000,5557.000
5668.000,5559.000,5558.000
5625.000,5570.000,5536.000
5643.000,5647.000,5548.000
5674.000,5591.000,5607.000
5683.000,5652.000,5628.000
5651.000,5652.000,5584.000
5679.000,5623.000,5631.000
5684.000,5646.000,5638.000
5711.000,5734.000,5592.000
5715.000,5748.000,5627.000
5674.000,5707.000,5652.000
5829.000,5745.000,5667.000
5817.000,5691.000,5643.000
5803.000,5788.000,5719.000
5792.000,5759.000,5762.000
5837.000,5820.000,5751.000
5868.000,5749.000,5792.000
5819.000,5775.000,5804.000
5915.000,5844.000,5817.000
5825.000,5790.000,5913.000
5823.000,5861.000,5863.000
5867.000,5768.000,5754.000
5844.000,5797.000,5811.000
5877.000,5809.000,5809.000
5928.000,5836.000,5809.000
5871.000,5798.000,5872.000
5914.000,5891.000,5847.000
5909.000,5818.000,5851.000
5933.000,5903.000,5870.000
5842.000,5875.000,5907.000
5884.000,5912.000,5908.000
5923.000,5919.000,5902.000
5959.000,5898.000,5881.000
5906.000,5956.000,5894.000
5984.000,5954.000,5868.000
5945.000,5928.000,5939.000
5915.000,5936.000,5894.000
5979.000,5948.000,6009.000
6067.000,5954.000,5867.000
6116.000,5944.000,5937.000
6027.000,6024.000,5961.000
6084.000,5962.000,6015.000
6122.000,6092.000,6022.000
6101.000,6126.000,6061.000
6128.000,6109.000,6096.000
6131.000,6139.000,6052.000
6114.000,6156.000,6091.000
6153.000,6142.000,6147.000
6140.000,6042.000,6064.000
6170.000,6173.000,6093.000
6183.000,6062.000,6090.000
6145.000,6167.000,6095.000
6114.000,6186.000,6107.000
6081.000,6087.000,6109.000
6159.000,6114.000,6154.000
6142.000,6121.000,6134.000
6223.000,6190.000,6215.000
6178.000,6118.000,6108.000
6232.000,6198.000,6117.000
6175.000,6147.000,6096.000
6231.000,6168.000,6204.000
6228.000,6246.000,6222.000
6226.000,6226.000,6129.000
6335.000,6242.000,6231.000
6275.000,6176.000,6214.000
6333.000,6158.000,6296.000
6342.000,6277.000,6213.000
6331.000,6314.000,6396.000
6324.000,6356.000,6277.000
6371.000,6363.000,6279.000
6428.000,6322.000,6337.000
6363.000,6384.000,6304.000
6376.000,6393.000,6409.000
6497.000,6456.000,6371.000
6480.000,6460.000,6488.000
6480.000,6526.000,6437.000
6539.000,6566.000,6464.000
6678.000,6546.000,6593.000
6701.000,6640.000,6608.000
6752.000,6670.000,6623.000
6826.000,6805.000,6794.000
6780.000,6905.000,6791.000
6926.000,6959.000,6753.000
7042.000,6960.000,6956.000
7086.000,7095.000,7018.000
7156.000,7093.000,7155.000
7219.000,7115.000,7100.000
7331.000,7228.000,7219.000
7359.000,7232.000,7289.000
7277.000,7237.000,7204.000
7324.000,7297.000,7280.000
7293.000,7280.000,7293.000
7227.000,7232.000,7233.000
7247.000,7158.000,7156.000
7219.000,7188.000,7173.000
7209.000,7154.000,7132.000
7163.000,7031.000,7016.000
7000.000,7039.000,6950.000
6997.000,6927.000,6951.000
6864.000,6895.000,6837.000
6853.000,6835.000,6816.000
6758.000,6741.000,6739.000
6762.000,6727.000,6771.000
6700.000,6741.000,6655.000
6701.000,6670.000,6632.000
6600.000,6599.000,6605.000
6670.000,6569.000,6491.000
6599.000,6546.000,6619.000
6553.000,6494.000,6485.000
6573.000,6477.000,6496.000
6544.000,6420.000,6402.000
6467.000,6435.000,6445.000
6527.000,6430.000,6492.000
6379.000,6438.000,6361.000
6353.000,6336.000,6360.000
6431.000,6324.000,6288.000
6369.000,6396.000,6359.000
6498.000,6322.000,6355.000
6386.000,6280.000,6317.000
6393.000,6368.000,6324.000
6364.000,6307.000,6286.000
6309.000,6321.000,6327.000
6350.000,6286.000,6292.000
6358.000,6330.000,6245.000
6338.000,6304.000,6310.000
6314.000,6345.000,6323.000
6408.000,6372.000,6283.000
6440.000,6299.000,6242.000
6432.000,6373.000,6310.000
6361.000,6366.000,6289.000
6360.000,6403.000,6349.000
6339.000,6361.000,6272.000
6347.000,6332.000,6352.000
6376.000,6356.000,6260.000
6411.000,6417.000,6286.000
6404.000,6392.000,6406.000
6345.000,6293.000,6296.000
6434.000,6383.000,6326.000
6354.000,6341.000,6304.000
6320.000,6339.000,6301.000
6377.000,6324.000,6288.000
6287.000,6272.000,6256.000
6188.000,6163.000,6211.000
6301.000,6195.000,6133.000
6241.000,6178.000,6179.000
6318.000,6167.000,6100.000
6178.000,6192.000,6149.000
6202.000,6225.000,6095.000
6174.000,6076.000,6156.000
6183.000,6017.000,6078.000
5997.000,5999.000,6108.000
6078.000,5984.000,5969.000
6029.000,6066.000,6065.000
6059.000,5992.000,6067.000
6040.000,6048.000,5979.000
6062.000,6037.000,5982.000
6016.000,5995.000,5990.000
6010.000,5977.000,5886.000
6006.000,5948.000,5891.000
6036.000,5878.000,5906.000
5913.000,5890.000,5989.000
5943.000,5921.000,5898.000
5985.000,5911.000,5937.000
6076.000,5943.000,5930.000
5947.000,5988.000,5950.000
5916.000,5979.000,5882.000
5962.000,5888.000,5835.000
5938.000,5827.000,5932.000
5990.000,5822.000,5814.000
6020.000,5864.000,5863.000
5880.000,5916.000,5884.000
5895.000,5911.000,5847.000
5880.000,5895.000,5859.000
5911.000,5880.000,5856.000
5856.000,5773.000,5826.000
5907.000,5767.000,5825.000
5899.000,5860.000,5821.000
5834.000,5830.000,5810.000
5895.000,5856.000,5796.000
5860.000,5826.000,5787.000
5858.000,5848.000,5838.000
5832.000,5885.000,5767.000
5893.000,5867.000,5786.000
5918.000,5889.000,5870.000
5991.000,5859.000,5829.000
5949.000,5851.000,5817.000
5859.000,5930.000,5837.000
5969.000,5852.000,5796.000
5931.000,5950.000,5823.000
5943.000,5894.000,5830.000
5952.000,5922.000,5794.000
5975.000,5881.000,5836.000
6011.000,5924.000,5831.000
5943.000,5923.000,5842.000
5999.000,5843.000,5851.000
5911.000,5918.000,5882.000
5936.000,5923.000,5832.000
5910.000,5934.000,5930.000
5975.000,5897.000,5863.000
5993.000,5924.000,5920.000
5939.000,5907.000,5959.000
5964.000,5938.000,5972.000
5984.000,5951.000,5915.000
6047.000,5921.000,5881.000
6032.000,6003.000,5935.000
5889.000,5924.000,5936.000
5942.000,5933.000,5946.000
5978.000,5859.000,5902.000
5909.000,5954.000,5905.000
5933.000,5923.000,5916.000
5962.000,5955.000,5886.000
6025.000,5833.000,5888.000
5962.000,5907.000,5911.000
5915.000,5877.000,5817.000
5895.000,5958.000,5915.000
5948.000,5941.000,5853.000
6155.000,5906.000,5858.000
6319.000,5997.000,5935.000
6244.000,5941.000,5926.000
6824.000,5939.000,5940.000
6346.000,5959.000,5910.000
6445.000,5920.000,5914.000
6569.000,5964.000,5907.000
6627.000,5970.000,5991.000
6015.000,6014.000,5961.000
6003.000,5934.000,5991.000
5938.000,5949.000,5985.000
5924.000,5936.000,5909.000
5909.000,5936.000,5883.000
5943.000,5887.000,5911.000
5969.000,5882.000,5880.000
5922.000,5848.000,5881.000
5872.000,5862.000,5879.000
5974.000,5883.000,5880.000
5909.000,5810.000,5883.000
5899.000,5801.000,5857.000
5861.000,5839.000,5836.000
5898.000,5886.000,5789.000
5973.000,5753.000,5775.000
5926.000,5861.000,5785.000
5877.000,5857.000,5841.000
5846.000,5868.000,5872.000
5928.000,5808.000,5765.000
5826.000,5895.000,5844.000
5804.000,5835.000,5726.000
5839.000,5773.000,5815.000
5774.000,5759.000,5782.000
5877.000,5771.000,5845.000
5851.000,5775.000,5806.000
5891.000,5790.000,5803.000
5836.000,5834.000,5799.000
5805.000,5775.000,5767.000
5863.000,5822.000,5792.000
5837.000,5727.000,5786.000
5905.000,5799.000,5778.000
5879.000,5800.000,5827.000
5884.000,5822.000,5876.000
5853.000,5824.000,5831.000
5821.000,5809.000,5848.000
5830.000,5766.000,5760.000
5824.000,5750.000,5774.000
5829.000,5790.000,5838.000
5842.000,5768.000,5780.000
5785.000,5766.000,5752.000
5849.000,5736.000,5735.000
5851.000,5800.000,5830.000
5825.000,5829.000,5733.000
5900.000,5854.000,5776.000
5864.000,5843.000,5811.000
5811.000,5785.000,5790.000
5783.000,5856.000,5790.000
5857.000,5713.000,5774.000
5858.000,5798.000,5747.000
5856.000,5752.000,5804.000
5922.000,5861.000,5837.000
5924.000,5813.000,5771.000
5874.000,5820.000,5794.000
5807.000,5890.000,5797.000
5847.000,5794.000,5747.000
5872.000,5770.000,5816.000
5818.000,5808.000,5810.000
5863.000,5791.000,5756.000
5815.000,5842.000,5819.000
5815.000,5803.000,5807.000
5908.000,5856.000,5752.000
5831.000,5776.000,5827.000
5851.000,5818.000,5848.000
5827.000,5817.000,5865.000
5825.000,5813.000,5771.000
5850.000,5803.000,5809.000
5907.000,5820.000,5758.000
5884.000,5914.000,5838.000
5849.000,5773.000,5754.000
5882.000,5857.000,5767.000
5843.000,5854.000,5756.000
5891.000,5821.000,5806.000
5898.000,5849.000,5773.000
5867.000,5874.000,5815.000
5852.000,5808.000,5767.000
5825.000,5777.000,5775.000
5832.000,5811.000,5734.000
5863.000,5784.000,5843.000
5875.000,5826.000,5761.000
5860.000,5783.000,5780.000
5815.000,5779.000,5787.000
5818.000,5857.000,5783.000
5819.000,5804.000,5684.000
5880.000,5829.000,5783.000
5860.000,5798.000,5807.000
5909.000,5796.000,5829.000
5892.000,5816.000,5833.000
5892.000,5769.000,5744.000
5817.000,5838.000,5766.000
5897.000,5882.000,5786.000
5785.000,5848.000,5829.000
5797.000,5748.000,5705.000
5832.000,5816.000,5823.000
5866.000,5855.000,5776.000
5772.000,5740.000,5771.000
5890.000,5835.000,5819.000
5938.000,5843.000,5826.000
5861.000,5760.000,5794.000
5856.000,5836.000,5785.000
5872.000,5859.000,5790.000
5930.000,5812.000,5774.000
5842.000,5789.000,5790.000
5796.000,5807.000,5830.000
5768.000,5817.000,5827.000
5852.000,5789.000,5763.000
5834.000,5901.000,5788.000
5835.000,5747.000,5771.000
5866.000,5781.000,5773.000
5924.000,5811.000,5785.000
5884.000,5756.000,5880.000
5852.000,5824.000,5772.000
5885.000,5850.000,5837.000
5904.000,5865.000,5823.000
5869.000,5835.000,5742.000
5882.000,5839.000,5782.000
5972.000,5858.000,5829.000
5895.000,5836.000,5843.000
5777.000,5752.000,5863.000
5790.000,5838.000,5810.000
5893.000,5870.000,5796.000
5890.000,5865.000,5847.000
5872.000,5848.000,5884.000
5833.000,5826.000,5818.000
5817.000,5863.000,5886.000
5885.000,5802.000,5809.000
5830.000,5838.000,5778.000
5895.000,5768.000,5780.000
5819.000,5777.000,5780.000
5931.000,5767.000,5866.000
5902.000,5755.000,5761.000
5894.000,5770.000,5804.000
5967.000,5747.000,5819.000
5851.000,5809.000,5820.000
5826.000,5840.000,5820.000
5878.000,5800.000,5855.000
5901.000,5847.000,5823.000
5862.000,5792.000,5823.000
5924.000,5899.000,5803.000
5919.000,5834.000,5741.000
5876.000,5798.000,5840.000
5869.000,5831.000,5830.000
5893.000,5844.000,5801.000
5903.000,5892.000,5846.000
5885.000,5898.000,5804.000
5853.000,5773.000,5828.000
5847.000,5830.000,5825.000
5855.000,5847.000,5764.000
5924.000,5815.000,5757.000
5841.000,5853.000,5844.000
5852.000,5771.000,5920.000
5831.000,5774.000,5862.000
5806.000,5846.000,5737.000
5846.000,5767.000,5807.000
5908.000,5823.000,5815.000
5880.000,5871.000,5789.000
5955.000,5923.000,5881.000
5883.000,5843.000,5856.000
5952.000,5924.000,5809.000
5935.000,5902.000,5858.000
5886.000,5876.000,5849.000
5871.000,5834.000,5845.000
5927.000,5932.000,5872.000
5950.000,5931.000,5821.000
5918.000,5858.000,5882.000
5899.000,5871.000,5911.000
5986.000,5899.000,5877.000
5940.000,5846.000,5966.000
5972.000,5872.000,5899.000
5988.000,5863.000,5844.000
5979.000,5894.000,5946.000
5890.000,5905.000,5909.000
5917.000,5955.000,5866.000
5940.000,5864.000,5885.000
5895.000,5894.000,5802.000
5903.000,5887.000,5910.000
5937.000,5905.000,5905.000
5948.000,5927.000,5891.000
5967.000,5903.000,5858.000
5886.000,5973.000,5944.000
6019.000,5978.000,5893.000
6007.000,5972.000,5921.000
6026.000,5871.000,5964.000
5978.000,5939.000,5884.000
5981.000,5980.000,5891.000
5977.000,6035.000,5967.000
6016.000,5928.000,5983.000
6014.000,5922.000,5956.000
5993.000,5976.000,5924.000
5887.000,5970.000,5964.000
5989.000,5944.000,5936.000
6024.000,5984.000,5980.000
6118.000,5997.000,6025.000
6098.000,6072.000,5997.000
6081.000,6000.000,6013.000
6009.000,5959.000,6002.000
6077.000,6042.000,6060.000
6036.000,6060.000,6012.000
6076.000,6102.000,6074.000
6172.000,6141.000,6005.000
6093.000,6021.000,6019.000
6020.000,6083.000,6024.000
6114.000,6094.000,6040.000
6114.000,6096.000,6059.000
6074.000,6056.000,6042.000
6179.000,6027.000,6026.000
6202.000,6087.000,6128.000
6235.000,6129.000,6203.000
6273.000,6114.000,6166.000
6167.000,6169.000,6123.000
6206.000,6170.000,6205.000
6280.000,6275.000,6184.000
6307.000,6276.000,6270.000
6366.000,6335.000,6269.000
6507.000,6396.000,6336.000
6516.000,6464.000,6496.000
6482.000,6557.000,6480.000
6663.000,6580.000,6592.000
6739.000,6779.000,6661.000
6914.000,6736.000,6785.000
6958.000,7012.000,6902.000
7114.000,7026.000,7141.000
7365.000,7339.000,7378.000
7597.000,7651.000,7605.000
8058.000,7952.000,7995.000
8398.000,8453.000,8337.000
8924.000,8989.000,9027.000
9653.000,9604.000,9704.000
10327.000,10419.000,10340.000
11290.000,11364.000,11255.000
12118.000,12229.000,12184.000
13101.000,13076.000,13079.000
13861.000,13839.000,13875.000
14561.000,14446.000,14508.000
14975.000,14845.000,15021.000
15045.000,15142.000,14930.000
14945.000,14900.000,14758.000
14558.000,14596.000,14552.000
14053.000,13992.000,13945.000
13216.000,13123.000,13174.000
12275.000,12268.000,12153.000
11438.000,11420.000,11393.000
10592.000,10383.000,10470.000
9765.000,9684.000,9802.000
9231.000,9100.000,9088.000
8484.000,8528.000,8509.000
8113.000,8052.000,7963.000
7715.000,7687.000,7560.000
7334.000,7297.000,7265.000
7100.000,7056.000,7051.000
6903.000,6919.000,6802.000
6754.000,6714.000,6624.000
6584.000,6573.000,6630.000
6494.000,6522.000,6389.000
6392.000,6446.000,6291.000
6326.000,6359.000,6228.000
6174.000,6210.000,6288.000
6196.000,6216.000,6261.000
6142.000,6135.000,6108.000
6128.000,6111.000,6036.000
6166.000,6034.000,6083.000
6115.000,6013.000,6012.000
6036.000,6033.000,6027.000
6018.000,6002.000,5963.000
5945.000,6031.000,5980.000
6007.000,5979.000,5986.000
5994.000,5954.000,5908.000
5932.000,5954.000,5899.000
5922.000,5879.000,5848.000
5920.000,5865.000,5979.000
5889.000,5852.000,5838.000
5889.000,5893.000,5810.000
5817.000,5883.000,5774.000
5912.000,5748.000,5834.000
5811.000,5712.000,5806.000
5875.000,5806.000,5757.000
5801.000,5787.000,5801.000
5803.000,5725.000,5817.000
5863.000,5832.000,5774.000
5825.000,5763.000,5762.000
5849.000,5767.000,5698.000
5772.000,5759.000,5768.000
5823.000,5752.000,5714.000
5789.000,5793.000,5783.000
5824.000,5739.000,5711.000
5740.000,5739.000,5732.000
5794.000,5760.000,5754.000
5806.000,5789.000,5711.000
5820.000,5752.000,5663.000
5728.000,5768.000,5700.000
5801.000,5702.000,5709.000
5802.000,5682.000,5652.000
5746.000,5628.000,5657.000
5735.000,5703.000,5719.000
5795.000,5703.000,5713.000
5807.000,5641.000,5606.000
5683.000,5674.000,5598.000
5691.000,5625.000,5625.000
5711.000,5625.000,5695.000
5702.000,5578.000,5676.000
5683.000,5618.000,5658.000
5710.000,5676.000,5632.000
5642.000,5693.000,5592.000
5701.000,5689.000,5588.000
5789.000,5671.000,5686.000
5661.000,5609.000,5649.000
5607.000,5651.000,5602.000
5696.000,5617.000,5607.000
5584.000,5612.000,5651.000
5579.000,5655.000,5555.000
5622.000,5631.000,5559.000
5616.000,5619.000,5552.000
5627.000,5619.000,5659.000
5606.000,5585.000,5598.000
5619.000,5612.000,5626.000
5707.000,5634.000,5536.000
5599.000,5528.000,5589.000
5618.000,5577.000,5540.000
5683.000,5634.000,5575.000
5634.000,5582.000,5607.000
5621.000,5629.000,5576.000
5727.000,5593.000,5609.000
5636.000,5586.000,5593.000
5570.000,5573.000,5575.000
5624.000,5616.000,5568.000
5587.000,5579.000,5518.000
5622.000,5645.000,5525.000
5587.000,5663.000,5547.000
5619.000,5579.000,5651.000
5646.000,5584.000,5588.000
5671.000,5636.000,5511.000
5661.000,5693.000,5549.000
5624.000,5616.000,5548.000
5602.000,5602.000,5655.000
5564.000,5646.000,5510.000
5594.000,5586.000,5599.000
5670.000,5613.000,5587.000
5681.000,5602.000,5485.000
5641.000,5594.000,5699.000
5639.000,5616.000,5564.000
5660.000,5621.000,5646.000
5669.000,5679.000,5575.000
5743.000,5733.000,5696.000
5680.000,5648.000,5660.000
5692.000,5639.000,5622.000
5685.000,5679.000,5642.000
5751.000,5703.000,5573.000
5666.000,5684.000,5701.000
5730.000,5710.000,5640.000
5757.000,5689.000,5670.000
5691.000,5648.000,5655.000
5659.000,5710.000,5660.000
5699.000,5664.000,5653.000
5751.000,5744.000,5700.000
5685.000,5731.000,5750.000
5830.000,5694.000,5695.000
5846.000,5728.000,5715.000
5793.000,5787.000,5733.000
5849.000,5804.000,5802.000
5835.000,5810.000,5827.000
5828.000,5785.000,5774.000
5809.000,5899.000,5754.000
5866.000,5934.000,5856.000
5924.000,5901.000,5954.000
6038.000,5878.000,5941.000
6019.000,6022.000,6008.000
6015.000,6046.000,6018.000
6042.000,6084.000,6091.000
6264.000,6134.000,6122.000
6250.000,6181.000,6202.000
6322.000,6184.000,6285.000
6463.000,6365.000,6325.000
6488.000,6485.000,6427.000
6580.000,6521.000,6520.000
6706.000,6700.000,6696.000
6882.000,6788.000,6769.000
6975.000,6926.000,6920.000
7214.000,7110.000,7134.000
7305.000,7273.000,7349.000
7527.000,7478.000,7515.000
7580.000,7652.000,7644.000
7831.000,7790.000,7691.000
7973.000,7926.000,7960.000
7996.000,7905.000,8025.000
8163.000,8059.000,8133.000
8122.000,8139.000,8131.000
8032.000,8119.000,8023.000
7984.000,7965.000,8049.000
7956.000,7973.000,8010.000
7928.000,7881.000,7839.000
7849.000,7800.000,7735.000
7581.000,7592.000,7446.000
7455.000,7358.000,7355.000
7289.000,7247.000,7273.000
7081.000,7047.000,7078.000
7128.000,7030.000,6897.000
6869.000,6780.000,6897.000
6793.000,6787.000,6728.000
6781.000,6759.000,6637.000
6642.000,6627.000,6599.000
6588.000,6492.000,6539.000
6464.000,6556.000,6541.000
6492.000,6512.000,6531.000
6459.000,6464.000,6462.000
6528.000,6418.000,6496.000
6618.000,6571.000,6475.000
6512.000,6566.000,6519.000
6670.000,6593.000,6452.000
6603.000,6623.000,6596.000
6683.000,6618.000,6665.000
6752.000,6745.000,6753.000
6797.000,6787.000,6810.000
6835.000,6835.000,6803.000
6912.000,6828.000,6830.000
6952.000,6959.000,6937.000
7047.000,7049.000,6963.000
7226.000,7132.000,7066.000
7241.000,7282.000,7183.000
7306.000,7206.000,7315.000
7453.000,7413.000,7388.000
7396.000,7425.000,7460.000
7510.000,7504.000,7510.000
7591.000,7445.000,7551.000
7545.000,7524.000,7486.000
7566.000,7596.000,7666.000
7585.000,7422.000,7451.000
7494.000,7414.000,7400.000
7429.000,7266.000,7302.000
7164.000,7214.000,7184.000
7108.000,7075.000,7051.000
6924.000,6956.000,6978.000
6775.000,6822.000,6721.000
6641.000,6666.000,6654.000
6588.000,6520.000,6537.000
6379.000,6434.000,6378.000
6309.000,6250.000,6286.000
6221.000,6207.000,6139.000
6118.000,6095.000,6079.000
5995.000,6024.000,5952.000
5986.000,5911.000,5918.000
5829.000,5966.000,5852.000
5841.000,5847.000,5848.000
5821.000,5758.000,5775.000
5818.000,5742.000,5725.000
5716.000,5711.000,5707.000
5707.000,5644.000,5674.000
5735.000,5655.000,5640.000
5644.000,5615.000,5628.000
5651.000,5601.000,5591.000
5645.000,5595.000,5595.000
5638.000,5667.000,5555.000
5637.000,5607.000,5553.000
5597.000,5595.000,5566.000
5689.000,5594.000,5544.000
5587.000,5539.000,5536.000
5557.000,5616.000,5613.000
5579.000,5555.000,5545.000
5635.000,5542.000,5526.000
5515.000,5533.000,5467.000
5508.000,5509.000,5428.000
5416.000,5456.000,5441.000
5446.000,5399.000,5382.000
5453.000,5400.000,5400.000
5455.000,5379.000,5366.000
5308.000,5350.000,5255.000
5310.000,5303.000,5299.000
5309.000,5312.000,5239.000
5343.000,5302.000,5273.000
5224.000,5248.000,5171.000
5188.000,5173.000,5231.000
5247.000,5136.000,5123.000
5102.000,5132.000,5117.000
5132.000,5059.000,5071.000
5094.000,5124.000,5031.000
5115.000,5092.000,5063.000
5050.000,5043.000,5039.000
5014.000,4976.000,5029.000
5000.000,5001.000,4968.000
5027.000,4903.000,4961.000
4949.000,4939.000,4920.000
4939.000,4994.000,4943.000
5004.000,4956.000,4878.000
4988.000,4923.000,4940.000
4880.000,4953.000,4955.000
4924.000,4915.000,4909.000
4995.000,4950.000,4927.000
4872.000,4903.000,4973.000
4888.000,4855.000,4895.000
4870.000,4837.000,4901.000
4858.000,4907.000,4892.000
4931.000,4917.000,4861.000
4881.000,4809.000,4777.000
4917.000,4782.000,4820.000
4811.000,4871.000,4836.000
4777.000,4802.000,4771.000
4847.000,4787.000,4788.000
4822.000,4792.000,4752.000
4775.000,4787.000,4827.000
4838.000,4800.000,4716.000
4806.000,4805.000,4739.000
4758.000,4738.000,4715.000
4716.000,4735.000,4684.000
4756.000,4764.000,4612.000
4718.000,4683.000,4707.000
4667.000,4665.000,4729.000
4712.000,4693.000,4658.000
4684.000,4713.000,4631.000
4680.000,4656.000,4719.000
4695.000,4720.000,4674.000
4682.000,4681.000,4646.000
4651.000,4697.000,4686.000
4698.000,4718.000,4687.000
4711.000,4685.000,4742.000
4677.000,4687.000,4681.000
4734.000,4687.000,4663.000
4700.000,4638.000,4685.000
4690.000,4707.000,4652.000
4624.000,4702.000,4648.000
4665.000,4643.000,4618.000
4692.000,4650.000,4583.000
4599.000,4638.000,4592.000
4644.000,4574.000,4626.000
4637.000,4625.000,4550.000
4619.000,4585.000,4594.000
4618.000,4618.000,4583.000
4688.000,4612.000,4634.000
4654.000,4652.000,4620.000
4636.000,4603.000,4608.000
4673.000,4657.000,4640.000
4702.000,4653.000,4686.000
4697.000,4622.000,4650.000
4661.000,4646.000,4716.000
4718.000,4620.000,4595.000
4692.000,4638.000,4661.000
4679.000,4618.000,4686.000
4650.000,4682.000,4637.000
4711.000,4608.000,4651.000
4689.000,4678.000,4604.000
4688.000,4611.000,4654.000
4655.000,4684.000,4616.000
4657.000,4675.000,4645.000
4633.000,4661.000,4650.000
4666.000,4615.000,4619.000
4614.000,4652.000,4600.000
4628.000,4664.000,4620.000
4607.000,4655.000,4654.000
4658.000,4691.000,4626.000
4618.000,4639.000,4697.000
4735.000,4662.000,4697.000
4765.000,4599.000,4671.000
4644.000,4667.000,4676.000
4669.000,4638.000,4729.000
4683.000,4675.000,4730.000
4683.000,4690.000,4678.000
4704.000,4654.000,4671.000
4747.000,4550.000,4652.000
4645.000,4659.000,4660.000
4669.000,4624.000,4692.000
4706.000,4607.000,4715.000
4685.000,4692.000,4711.000
4684.000,4681.000,4671.000
4684.000,4702.000,4656.000
4755.000,4711.000,4697.000
4750.000,4713.000,4725.000
4755.000,4711.000,4731.000
4774.000,4757.000,4786.000
4744.000,4716.000,4745.000
4749.000,4810.000,4725.000
4804.000,4742.000,4739.000
4750.000,4753.000,4627.000
4791.000,4751.000,4714.000
4751.000,4671.000,4750.000
4781.000,4716.000,4747.000
4821.000,4752.000,4749.000
4760.000,4701.000,4710.000
4786.000,4806.000,4738.000
4752.000,4738.000,4733.000
4809.000,4794.000,4802.000
4799.000,4839.000,4812.000
4894.000,4881.000,4826.000
4773.000,4886.000,4796.000
4878.000,4884.000,4774.000
4888.000,4862.000,4892.000
4806.000,4879.000,4840.000
4874.000,4873.000,4892.000
4946.000,4963.000,4833.000
4858.000,4893.000,4856.000
4964.000,4946.000,4935.000
4979.000,4953.000,4908.000
4907.000,4947.000,4908.000
5018.000,5051.000,4953.000
5022.000,5014.000,5047.000
5075.000,5112.000,5067.000
5154.000,5095.000,5062.000
5206.000,5144.000,5144.000
5229.000,5263.000,5243.000
5284.000,5274.000,5242.000
5366.000,5369.000,5372.000
5469.000,5479.000,5435.000
5520.000,5530.000,5535.000
5643.000,5498.000,5556.000
5604.000,5583.000,5524.000
5623.000,5572.000,5519.000
5537.000,5554.000,5522.000
5587.000,5491.000,5594.000
5487.000,5542.000,5589.000
5518.000,5507.000,5463.000
5532.000,5458.000,5436.000
5516.000,5395.000,5347.000
5432.000,5435.000,5403.000
5348.000,5306.000,5319.000
5334.000,5329.000,5352.000
5272.000,5334.000,5269.000
5255.000,5238.000,5242.000
5250.000,5174.000,5213.000
5250.000,5224.000,5188.000
5177.000,5146.000,5163.000
5086.000,5074.000,5060.000
5052.000,5075.000,5046.000
5041.000,5007.000,4950.000
4995.000,4948.000,4965.000
5005.000,5015.000,4938.000
4982.000,4938.000,4951.000
4951.000,4916.000,4857.000
4877.000,4836.000,4912.000
4858.000,4867.000,4881.000
4818.000,4792.000,4851.000
4880.000,4799.000,4803.000
4820.000,4888.000,4813.000
4833.000,4818.000,4854.000
4788.000,4772.000,4820.000
4840.000,4839.000,4862.000
4820.000,4841.000,4766.000
4810.000,4917.000,4843.000
4848.000,4858.000,4852.000
4873.000,4867.000,4854.000
4871.000,4791.000,4795.000
4864.000,4848.000,4853.000
4890.000,4871.000,4828.000
4839.000,4747.000,4838.000
4857.000,4833.000,4774.000
4876.000,4880.000,4800.000
4829.000,4847.000,4791.000
4844.000,4839.000,4771.000
4817.000,4796.000,4738.000
4759.000,4740.000,4735.000
4810.000,4737.000,4737.000
4781.000,4748.000,4710.000
4733.000,4757.000,4729.000
4768.000,4730.000,4779.000
4681.000,4759.000,4719.000
4699.000,4735.000,4665.000
4761.000,4658.000,4730.000
4726.000,4678.000,4686.000
4675.000,4614.000,4615.000
4694.000,4692.000,4678.000
4755.000,4665.000,4656.000
4780.000,4664.000,4717.000
4708.000,4626.000,4696.000
4787.000,4737.000,4689.000
4693.000,4697.000,4712.000
4715.000,4712.000,4659.000
4753.000,4739.000,4705.000
4717.000,4782.000,4743.000
4761.000,4701.000,4743.000
4701.000,4693.000,4648.000
4672.000,4702.000,4727.000
4761.000,4722.000,4730.000
4769.000,4696.000,4703.000
4652.000,4689.000,4706.000
4649.000,4641.000,4611.000
4674.000,4685.000,4680.000
4663.000,4711.000,4641.000
4660.000,4614.000,4616.000
4605.000,4601.000,4648.000
4646.000,4616.000,4553.000
4663.000,4621.000,4612.000
4620.000,4610.000,4580.000
4658.000,4625.000,4540.000
4657.000,4568.000,4605.000
4580.000,4599.000,4561.000
4629.000,4599.000,4567.000
4657.000,4600.000,4585.000
4611.000,4609.000,4590.000
4668.000,4577.000,4582.000
4677.000,4595.000,4603.000
4620.000,4622.000,4583.000
4611.000,4633.000,4629.000
4693.000,4590.000,4626.000
4698.000,4616.000,4596.000
4667.000,4633.000,4635.000
4723.000,4665.000,4592.000
4680.000,4668.000,4651.000
4626.000,4661.000,4629.000
4670.000,4663.000,4589.000
4675.000,4679.000,4630.000
4638.000,4600.000,4682.000
4624.000,4654.000,4577.000
4648.000,4610.000,4585.000
4678.000,4651.000,4621.000
4677.000,4663.000,4680.000
4677.000,4672.000,4684.000
4714.000,4703.000,4689.000
4647.000,4726.000,4666.000
4685.000,4713.000,4679.000
4772.000,4631.000,4651.000
4683.000,4703.000,4699.000
4702.000,4718.000,4666.000
4723.000,4645.000,4593.000
4684.000,4722.000,4665.000
4737.000,4669.000,4736.000
4780.000,4708.000,4683.000
4682.000,4695.000,4682.000
4742.000,4680.000,4608.000
4726.000,4701.000,4670.000
4706.000,4698.000,4751.000
4686.000,4596.000,4654.000
4690.000,4672.000,4605.000
4719.000,4628.000,4675.000
4655.000,4658.000,4618.000
4692.000,4682.000,4626.000
4722.000,4673.000,4684.000
4683.000,4698.000,4659.000
4703.000,4713.000,4661.000
4805.000,4703.000,4731.000
4726.000,4682.000,4718.000
4696.000,4676.000,4755.000
4770.000,4686.000,4690.000
4715.000,4708.000,4741.000
4669.000,4747.000,4695.000
4718.000,4772.000,4710.000
4816.000,4726.000,4771.000
4793.000,4742.000,4764.000
4809.000,4734.000,4719.000
4786.000,4798.000,4718.000
4742.000,4783.000,4769.000
4682.000,4765.000,4701.000
4804.000,4812.000,4737.000
4787.000,4780.000,4828.000
4771.000,4799.000,4758.000
4787.000,4742.000,4700.000
4761.000,4768.000,4768.000
4761.000,4721.000,4720.000
4735.000,4779.000,4728.000
4788.000,4807.000,4758.000
4773.000,4735.000,4729.000
4781.000,4790.000,4728.000
4749.000,4747.000,4751.000
4793.000,4742.000,4782.000
4773.000,4712.000,4694.000
4747.000,4834.000,4750.000
4808.000,4821.000,4752.000
4845.000,4820.000,4817.000
4849.000,4760.000,4756.000
4849.000,4769.000,4807.000
4795.000,4859.000,4785.000
4800.000,4759.000,4812.000
4848.000,4888.000,4875.000
4922.000,4903.000,4853.000
4937.000,4883.000,4913.000
4945.000,4949.000,4943.000
4940.000,4991.000,4957.000
5012.000,4976.000,5008.000
4987.000,5043.000,4979.000
5052.000,5016.000,5001.000
5092.000,5055.000,5119.000
5117.000,5066.000,5107.000
5095.000,5235.000,5097.000
5207.000,5154.000,5205.000
5206.000,5222.000,5202.000
5338.000,5266.000,5279.000
5360.000,5320.000,5396.000
5479.000,5403.000,5457.000
5544.000,5497.000,5425.000
5659.000,5578.000,5575.000
5685.000,5724.000,5671.000
5770.000,5856.000,5845.000
5985.000,5941.000,5978.000
6111.000,6025.000,6081.000
6260.000,6219.000,6199.000
6333.000,6286.000,6389.000
6399.000,6396.000,6457.000
6567.000,6559.000,6592.000
6602.000,6523.000,6591.000
6687.000,6614.000,6637.000
6743.000,6655.000,6651.000
6649.000,6613.000,6563.000
6481.000,6495.000,6484.000
6457.000,6417.000,6423.000
6288.000,6217.000,6259.000
6206.000,6100.000,6158.000
5978.000,5977.000,5956.000
5800.000,5818.000,5692.000
5642.000,5652.000,5574.000
5546.000,5443.000,5481.000
5341.000,5351.000,5382.000
5229.000,5246.000,5237.000
5126.000,5175.000,5099.000
5050.000,5022.000,5066.000
5012.000,5034.000,5025.000
5000.000,4987.000,4878.000
4905.000,4858.000,4839.000
4876.000,4820.000,4871.000
4841.000,4795.000,4765.000
4809.000,4810.000,4781.000
4859.000,4803.000,4764.000
4818.000,4804.000,4734.000
4801.000,4731.000,4755.000
4729.000,4809.000,4721.000
4819.000,4783.000,4742.000
4797.000,4732.000,4817.000
4828.000,4762.000,4796.000
4806.000,4833.000,4790.000
4849.000,4781.000,4785.000
4791.000,4832.000,4799.000
4776.000,4811.000,4822.000
4791.000,4793.000,4802.000
4753.000,4716.000,4756.000
4724.000,4672.000,4678.000
4690.000,4711.000,4623.000
4621.000,4654.000,4587.000
4651.000,4530.000,4559.000
4615.000,4528.000,4521.000
4516.000,4506.000,4477.000
4395.000,4454.000,4438.000
4387.000,4350.000,4396.000
4353.000,4348.000,4333.000
4347.000,4277.000,4241.000
4231.000,4261.000,4263.000
4227.000,4166.000,4189.000
4238.000,4131.000,4157.000
4187.000,4152.000,4139.000
4128.000,4101.000,4137.000
4130.000,4087.000,4132.000
4067.000,4111.000,4062.000
4064.000,3999.000,3992.000
4009.000,3979.000,3990.000
4052.000,4000.000,3961.000
3949.000,3955.000,3901.000
3959.000,3955.000,3907.000
3931.000,3931.000,3973.000
3915.000,3928.000,3921.000
3978.000,3922.000,3947.000
3880.000,3911.000,3905.000
3916.000,3873.000,3913.000
3880.000,3870.000,3851.000
3891.000,3914.000,3869.000
3916.000,3889.000,3863.000
3866.000,3872.000,3865.000
3864.000,3824.000,3863.000
3844.000,3890.000,3775.000
3852.000,3850.000,3867.000
3852.000,3852.000,3861.000
3838.000,3852.000,3837.000
3798.000,3843.000,3799.000
3829.000,3796.000,3763.000
3773.000,3756.000,3781.000
3761.000,3764.000,3750.000
3751.000,3785.000,3738.000
3813.000,3731.000,3771.000
3721.000,3684.000,3639.000
3661.000,3663.000,3738.000
3708.000,3707.000,3723.000
3662.000,3683.000,3655.000
3711.000,3663.000,3699.000
3627.000,3629.000,3712.000
3676.000,3595.000,3669.000
3592.000,3565.000,3596.000
3653.000,3571.000,3641.000
3626.000,3603.000,3577.000
3551.000,3542.000,3595.000
3580.000,3552.000,3567.000
3529.000,3575.000,3545.000
3554.000,3524.000,3528.000
3537.000,3475.000,3487.000
3532.000,3490.000,3499.000
3477.000,3506.000,3496.000
3463.000,3457.000,3456.000
3443.000,3451.000,3451.000
3443.000,3410.000,3407.000
3423.000,3460.000,3434.000
3428.000,3472.000,3416.000
3437.000,3429.000,3430.000
3417.000,3403.000,3411.000
3421.000,3381.000,3438.000
3375.000,3389.000,3364.000
3380.000,3420.000,3364.000
3371.000,3405.000,3365.000
3387.000,3380.000,3402.000
3398.000,3401.000,3372.000
3445.000,3394.000,3385.000
3343.000,3370.000,3329.000
3381.000,3375.000,3325.000
3401.000,3361.000,3410.000
3329.000,3366.000,3376.000
3386.000,3388.000,3381.000
3404.000,3380.000,3399.000
3414.000,3340.000,3348.000
3392.000,3353.000,3344.000
3347.000,3369.000,3349.000
3356.000,3332.000,3349.000
3336.000,3300.000,3306.000
3333.000,3244.000,3320.000
3357.000,3333.000,3307.000
3298.000,3323.000,3294.000
3323.000,3310.000,3305.000
3345.000,3264.000,3287.000
3273.000,3284.000,3263.000
3245.000,3229.000,3234.000
3254.000,3232.000,3236.000
3282.000,3215.000,3281.000
3319.000,3213.000,3246.000
3249.000,3262.000,3232.000
3258.000,3189.000,3211.000
3234.000,3186.000,3175.000
3182.000,3184.000,3214.000
3183.000,3182.000,3155.000
3142.000,3164.000,3183.000
3215.000,3170.000,3173.000
3178.000,3120.000,3158.000
3143.000,3213.000,3113.000
3156.000,3120.000,3162.000
3120.000,3143.000,3111.000
3126.000,3112.000,3126.000
3085.000,3132.000,3099.000
3130.000,3128.000,3084.000
3097.000,3125.000,3129.000
3146.000,3089.000,3082.000
3113.000,3147.000,3112.000
3081.000,3145.000,3141.000
3064.000,3096.000,3129.000
3122.000,3072.000,3105.000
3123.000,3117.000,3096.000
3127.000,3079.000,3118.000
3068.000,3065.000,3111.000
3160.000,3097.000,3106.000
3138.000,3162.000,3108.000
3070.000,3096.000,3128.000
3105.000,3131.000,3090.000
3109.000,3111.000,3084.000
3121.000,3091.000,3086.000
3118.000,3085.000,3076.000
3129.000,3106.000,3081.000
3095.000,3121.000,3062.000
3072.000,3096.000,3116.000
3127.000,3073.000,3115.000
3067.000,3127.000,3118.000
3112.000,3054.000,3077.000
3065.000,3086.000,3052.000
3055.000,3077.000,3067.000
3075.000,3101.000,3040.000
3042.000,3075.000,2994.000
3079.000,3047.000,3038.000
3071.000,3073.000,3005.000
3057.000,3048.000,3014.000
2998.000,3031.000,3013.000
3028.000,3047.000,3018.000
3011.000,3014.000,2987.000
3003.000,2998.000,2987.000
3006.000,2974.000,2961.000
2996.000,2978.000,2990.000
2988.000,2970.000,2969.000
2956.000,2947.000,2964.000
2957.000,2984.000,2977.000
2934.000,2938.000,2928.000
2966.000,2987.000,2928.000
2937.000,2937.000,2950.000
2922.000,2944.000,2969.000
2953.000,2922.000,2955.000
2968.000,2959.000,2899.000
2977.000,2928.000,2925.000
2918.000,2892.000,2934.000
2939.000,2906.000,2885.000
2951.000,2969.000,2878.000
2891.000,2903.000,2907.000
2973.000,2898.000,2927.000
2892.000,2909.000,2940.000
2935.000,2935.000,2940.000
2918.000,2881.000,2887.000
2917.000,2906.000,2907.000
2967.000,2953.000,2910.000
2968.000,2885.000,2898.000
2927.000,2916.000,2942.000
2917.000,2945.000,2943.000
2953.000,2935.000,2941.000
2900.000,2900.000,2916.000
2914.000,2873.000,2918.000
2929.000,2956.000,2910.000
2962.000,2923.000,2967.000
2920.000,2925.000,2907.000
2922.000,2912.000,2883.000
2889.000,2872.000,2886.000
2886.000,2886.000,2913.000
2864.000,2810.000,2893.000
2858.000,2855.000,2833.000
2826.000,2807.000,2833.000
2830.000,2823.000,2841.000
2851.000,2787.000,2814.000
2818.000,2824.000,2821.000
2788.000,2784.000,2795.000
2807.000,2811.000,2803.000
2835.000,2802.000,2822.000
2790.000,2782.000,2787.000
2824.000,2787.000,2779.000
2861.000,2809.000,2780.000
2795.000,2762.000,2797.000
2811.000,2825.000,2837.000
2848.000,2811.000,2829.000
2823.000,2779.000,2810.000
2816.000,2839.000,2812.000
2789.000,2809.000,2840.000
2779.000,2758.000,2832.000
2833.000,2779.000,2807.000
2816.000,2793.000,2795.000
2858.000,2826.000,2825.000
2832.000,2826.000,2846.000
2813.000,2804.000,2844.000
2821.000,2790.000,2820.000
2819.000,2811.000,2833.000
2845.000,2780.000,2805.000
2808.000,2813.000,2807.000
2805.000,2759.000,2809.000
2826.000,2784.000,2786.000
2815.000,2819.000,2803.000
2791.000,2797.000,2795.000
2797.000,2781.000,2791.000
2762.000,2738.000,2773.000
2793.000,2769.000,2757.000
2757.000,2733.000,2736.000
2773.000,2750.000,2729.000
2769.000,2722.000,2753.000
2732.000,2739.000,2692.000
2724.000,2727.000,2749.000
2707.000,2689.000,2716.000
2733.000,2701.000,2723.000
2712.000,2735.000,2699.000
2747.000,2724.000,2691.000
2728.000,2678.000,2672.000
2690.000,2715.000,2725.000
2728.000,2687.000,2691.000
2713.000,2705.000,2709.000
2746.000,2703.000,2706.000
2766.000,2730.000,2705.000
2685.000,2699.000,2705.000
2755.000,2742.000,2714.000
2731.000,2760.000,2757.000
2756.000,2726.000,2708.000
2761.000,2730.000,2759.000
2758.000,2757.000,2686.000
2739.000,2733.000,2694.000
2778.000,2673.000,2751.000
2722.000,2739.000,2719.000
2727.000,2751.000,2738.000
2726.000,2692.000,2739.000
2716.000,2699.000,2695.000
2693.000,2731.000,2681.000
2728.000,2699.000,2673.000
2718.000,2681.000,2710.000
2702.000,2724.000,2718.000
2717.000,2682.000,2705.000
2739.000,2747.000,2664.000
2715.000,2655.000,2680.000
2671.000,2667.000,2666.000
2657.000,2675.000,2649.000
2657.000,2666.000,2659.000
2675.000,2637.000,2674.000
2645.000,2658.000,2644.000
2678.000,2649.000,2649.000
2631.000,2637.000,2643.000
2649.000,2637.000,2605.000
2569.000,2641.000,2586.000
2635.000,2632.000,2601.000
2628.000,2598.000,2575.000
2614.000,2623.000,2623.000
2634.000,2600.000,2636.000
2581.000,2600.000,2594.000
2603.000,2581.000,2625.000
2559.000,2613.000,2582.000
2570.000,2581.000,2568.000
2584.000,2573.000,2566.000
2584.000,2551.000,2597.000
2605.000,2592.000,2634.000
2582.000,2572.000,2592.000
2563.000,2558.000,2565.000
2612.000,2604.000,2551.000
2613.000,2578.000,2554.000
2605.000,2580.000,2589.000
2575.000,2596.000,2602.000
2609.000,2593.000,2558.000
2576.000,2602.000,2559.000
2616.000,2624.000,2571.000
2638.000,2631.000,2601.000
2624.000,2589.000,2545.000
2628.000,2602.000,2617.000
2623.000,2637.000,2629.000
2620.000,2601.000,2585.000
2638.000,2612.000,2634.000
2591.000,2630.000,2592.000
2607.000,2605.000,2570.000
2577.000,2576.000,2595.000
2599.000,2529.000,2590.000
2609.000,2594.000,2579.000
2569.000,2562.000,2581.000
2599.000,2574.000,2570.000
2614.000,2572.000,2569.000
2624.000,2543.000,2568.000
2578.000,2553.000,2552.000
2550.000,2513.000,2548.000
2537.000,2557.000,2534.000
2494.000,2508.000,2507.000
2527.000,2509.000,2518.000
2487.000,2521.000,2521.000
2520.000,2522.000,2496.000
2515.000,2475.000,2485.000
2493.000,2443.000,2517.000
2488.000,2449.000,2457.000
2491.000,2489.000,2477.000
2478.000,2483.000,2457.000
2499.000,2497.000,2476.000
2508.000,2459.000,2481.000
2461.000,2475.000,2476.000
2483.000,2490.000,2475.000
2535.000,2481.000,2478.000
2507.000,2475.000,2500.000
2520.000,2520.000,2467.000
2486.000,2491.000,2482.000
2514.000,2507.000,2511.000
2537.000,2511.000,2514.000
2519.000,2491.000,2531.000
2519.000,2489.000,2497.000
2514.000,2483.000,2502.000
2531.000,2502.000,2520.000
2522.000,2506.000,2501.000
2508.000,2490.000,2524.000
2507.000,2481.000,2464.000
2544.000,2500.000,2485.000
2505.000,2494.000,2475.000
2498.000,2514.000,2481.000
2468.000,2488.000,2488.000
2456.000,2474.000,2440.000
2478.000,2513.000,2480.000
2496.000,2479.000,2460.000
2466.000,2452.000,2443.000
2477.000,2461.000,2468.000
2450.000,2442.000,2425.000
2404.000,2444.000,2431.000
2452.000,2434.000,2439.000
2445.000,2427.000,2407.000
2437.000,2402.000,2433.000
2434.000,2458.000,2417.000
2382.000,2408.000,2393.000
2421.000,2427.000,2373.000
2420.000,2423.000,2451.000
2433.000,2447.000,2415.000
2446.000,2406.000,2411.000
2402.000,2404.000,2412.000
2424.000,2407.000,2445.000
2427.000,2408.000,2371.000
2412.000,2426.000,2412.000
2434.000,2456.000,2443.000
2437.000,2428.000,2444.000
2423.000,2430.000,2408.000
2454.000,2438.000,2445.000
2435.000,2402.000,2446.000
2459.000,2431.000,2456.000
2416.000,2447.000,2427.000
2415.000,2464.000,2453.000
2471.000,2462.000,2420.000
2434.000,2411.000,2449.000
2425.000,2435.000,2414.000
2424.000,2415.000,2425.000
2481.000,2407.000,2432.000
2442.000,2456.000,2434.000
2441.000,2440.000,2401.000
2386.000,2371.000,2399.000
2410.000,2391.000,2385.000
2381.000,2427.000,2389.000
2406.000,2429.000,2391.000
2410.000,2387.000,2364.000
2399.000,2376.000,2377.000
2402.000,2354.000,2383.000
2361.000,2367.000,2426.000
2373.000,2409.000,2370.000
2385.000,2338.000,2343.000
2333.000,2373.000,2350.000
2399.000,2384.000,2323.000
2335.000,2317.000,2369.000
2348.000,2300.000,2343.000
2342.000,2356.000,2331.000
2332.000,2332.000,2357.000
2351.000,2367.000,2338.000
2335.000,2327.000,2335.000
2353.000,2363.000,2370.000
2336.000,2356.000,2359.000
2335.000,2343.000,2312.000
2337.000,2317.000,2315.000
2334.000,2326.000,2308.000
2336.000,2353.000,2307.000
2323.000,2329.000,2356.000
2321.000,2339.000,2339.000
2368.000,2356.000,2367.000
2384.000,2368.000,2353.000
2362.000,2322.000,2354.000
2385.000,2330.000,2336.000
2325.000,2348.000,2315.000
2327.000,2323.000,2307.000
2351.000,2354.000,2323.000
2327.000,2340.000,2337.000
2359.000,2324.000,2345.000
2319.000,2334.000,2294.000
2331.000,2350.000,2292.000
2307.000,2307.000,2293.000
2312.000,2310.000,2314.000
2254.000,2299.000,2301.000
2288.000,2284.000,2287.000
2287.000,2268.000,2294.000
2312.000,2292.000,2252.000
2273.000,2272.000,2307.000
2240.000,2233.000,2301.000
2268.000,2235.000,2292.000
2258.000,2262.000,2270.000
2269.000,2231.000,2266.000
2265.000,2246.000,2241.000
2222.000,2217.000,2239.000
2243.000,2225.000,2236.000
2233.000,2224.000,2213.000
2237.000,2229.000,2229.000
2195.000,2201.000,2172.000
2244.000,2213.000,2226.000
2199.000,2192.000,2189.000
2189.000,2193.000,2191.000
2179.000,2218.000,2181.000
2192.000,2209.000,2181.000
2173.000,2190.000,2215.000
2187.000,2170.000,2177.000
2203.000,2167.000,2182.000
2207.000,2158.000,2170.000
2201.000,2198.000,2165.000
2171.000,2183.000,2212.000
2217.000,2146.000,2170.000
2216.000,2184.000,2206.000
2200.000,2178.000,2172.000
2168.000,2212.000,2221.000
2184.000,2211.000,2202.000
2201.000,2195.000,2194.000
2184.000,2187.000,2194.000
2185.000,2191.000,2192.000
2192.000,2188.000,2196.000
2172.000,2190.000,2179.000
2169.000,2193.000,2168.000
2167.000,2164.000,2152.000
2177.000,2175.000,2165.000
2158.000,2177.000,2192.000
2176.000,2190.000,2142.000
2163.000,2142.000,2188.000
2172.000,2157.000,2145.000
2179.000,2151.000,2136.000
2148.000,2166.000,2174.000
2179.000,2172.000,2173.000
2133.000,2147.000,2140.000
2147.000,2152.000,2103.000
2141.000,2133.000,2130.000
2119.000,2144.000,2133.000
2091.000,2121.000,2116.000
2116.000,2123.000,2130.000
2111.000,2138.000,2096.000
2063.000,2073.000,2085.000
2096.000,2079.000,2125.000
2085.000,2083.000,2072.000
2074.000,2082.000,2083.000
2099.000,2057.000,2075.000
2029.000,2097.000,2041.000
2059.000,2050.000,2076.000
2082.000,2076.000,2064.000
2071.000,2069.000,2061.000
2057.000,2108.000,2059.000
2049.000,2089.000,2008.000
2051.000,2052.000,2053.000
2045.000,2022.000,2051.000
2046.000,2037.000,2038.000
2018.000,2054.000,2014.000
2033.000,2005.000,2066.000
2079.000,2043.000,2060.000
2007.000,2028.000,2044.000
2024.000,2059.000,2051.000
2050.000,2039.000,2046.000
2072.000,2036.000,2056.000
2062.000,2054.000,2031.000
2058.000,2065.000,2039.000
2037.000,2069.000,2039.000
2078.000,2060.000,2022.000
2029.000,2013.000,2028.000
2056.000,2025.000,2050.000
2025.000,2049.000,2033.000
2040.000,2037.000,2025.000
2038.000,2024.000,2030.000
2029.000,2027.000,2039.000
2032.000,2031.000,2005.000
2002.000,2020.000,2017.000
2040.000,2012.000,2003.000
1993.000,2031.000,2018.000
2000.000,1991.000,2008.000
1973.000,2012.000,1988.000
2025.000,2007.000,1986.000
1990.000,1981.000,1988.000
2022.000,1978.000,1988.000
2001.000,1989.000,1939.000
1963.000,1967.000,1999.000
1992.000,2008.000,2002.000
1948.000,1966.000,1973.000
1956.000,1989.000,1960.000
1994.000,1980.000,1949.000
1947.000,1940.000,1917.000
1971.000,1964.000,1980.000
1914.000,1937.000,1945.000
1953.000,1951.000,1983.000
1930.000,1912.000,1929.000
1924.000,1914.000,1942.000
1950.000,1914.000,1912.000
1910.000,1918.000,1911.000
1919.000,1896.000,1915.000
1910.000,1919.000,1901.000
1929.000,1906.000,1911.000
1912.000,1894.000,1916.000
1886.000,1905.000,1927.000
1905.000,1858.000,1880.000
1883.000,1915.000,1894.000
1885.000,1891.000,1920.000
1887.000,1913.000,1885.000
1902.000,1887.000,1874.000
1882.000,1890.000,1873.000
1898.000,1867.000,1888.000
1877.000,1880.000,1894.000
1894.000,1886.000,1894.000
1887.000,1902.000,1887.000
1889.000,1885.000,1880.000
1866.000,1896.000,1856.000
1893.000,1909.000,1856.000
1876.000,1876.000,1861.000
1887.000,1880.000,1873.000
1901.000,1879.000,1881.000
1897.000,1877.000,1853.000
1867.000,1864.000,1863.000
1850.000,1861.000,1869.000
1851.000,1873.000,1871.000
1896.000,1854.000,1847.000
1873.000,1878.000,1874.000
1841.000,1839.000,1870.000
1844.000,1832.000,1843.000
1884.000,1839.000,1862.000
1832.000,1823.000,1850.000
1850.000,1850.000,1826.000
1857.000,1830.000,1825.000
1834.000,1819.000,1817.000
1835.000,1807.000,1820.000
1820.000,1818.000,1813.000
1810.000,1823.000,1815.000
1794.000,1818.000,1783.000
1813.000,1820.000,1775.000
1811.000,1791.000,1782.000
1811.000,1797.000,1822.000
1790.000,1779.000,1792.000
1791.000,1764.000,1785.000
1771.000,1778.000,1802.000
1755.000,1777.000,1773.000
1757.000,1760.000,1750.000
1764.000,1754.000,1742.000
1757.000,1741.000,1746.000
1732.000,1751.000,1749.000
1781.000,1744.000,1747.000
1738.000,1740.000,1754.000
1745.000,1739.000,1764.000
1753.000,1734.000,1732.000
1753.000,1730.000,1744.000
1749.000,1760.000,1719.000
1744.000,1747.000,1762.000
1744.000,1739.000,1741.000
1743.000,1717.000,1746.000
1746.000,1742.000,1722.000
1724.000,1711.000,1717.000
1734.000,1733.000,1740.000
1736.000,1740.000,1733.000
1703.000,1737.000,1726.000
1744.000,1742.000,1737.000
1709.000,1730.000,1714.000
1751.000,1719.000,1725.000
1726.000,1709.000,1730.000
1712.000,1731.000,1696.000
1715.000,1719.000,1714.000
1712.000,1722.000,1708.000
1715.000,1691.000,1701.000
1719.000,1698.000,1700.000
1717.000,1708.000,1724.000
1715.000,1696.000,1683.000
1701.000,1691.000,1674.000
1668.000,1681.000,1674.000
1692.000,1672.000,1672.000
1684.000,1698.000,1678.000
1660.000,1684.000,1654.000
1682.000,1671.000,1669.000
1674.000,1662.000,1662.000
1664.000,1642.000,1688.000
1660.000,1639.000,1629.000
1632.000,1645.000,1649.000
1627.000,1642.000,1661.000
1646.000,1654.000,1652.000
1649.000,1634.000,1639.000
1611.000,1650.000,1645.000
1622.000,1628.000,1612.000
