Focus Mode,Read Mode,Exposure Time (sec),Number of Frames,Start Y,End Y,Date,Time,Position (microns)
Single Acquisition,Spectrum,20.000000,3,105,125,2/11/2021,6:00:34 PM,-3494.010000,0.000000,221.990000,

1263.000,1264.000,1269.000
1270.000,1278.000,1268.000
1273.000,1270.000,1271.000
1269.000,1265.000,1281.000
1277.000,1268.000,1268.000
1269.000,1279.000,1270.000
1262.000,1282.000,1273.000
1267.000,1274.000,1263.000
1266.000,1270.000,1270.000
1271.000,1271.000,1272.000
1271.000,1270.000,1276.000
1271.000,1276.000,1278.000
1274.000,1278.000,1276.000
1276.000,1271.000,1270.000
1277.000,1281.000,1271.000
1273.000,1285.000,1274.000
1270.000,1276.000,1271.000
1278.000,1287.000,1284.000
1274.000,1281.000,1282.000
1284.000,1287.000,1292.000
1278.000,1290.000,1289.000
1285.000,1287.000,1297.000
1279.000,1286.000,1286.000
1289.000,1293.000,1289.000
1289.000,1293.000,1286.000
1298.000,1285.000,1288.000
1293.000,1308.000,1300.000
1300.000,1303.000,1305.000
1309.000,1303.000,1295.000
1314.000,1306.000,1304.000
1307.000,1310.000,1307.000
1309.000,1314.000,1321.000
1305.000,1321.000,1309.000
1315.000,1311.000,1307.000
1318.000,1304.000,1320.000
1316.000,1326.000,1315.000
1336.000,1328.000,1328.000
1335.000,1316.000,1321.000
1331.000,1336.000,1337.000
1338.000,1345.000,1340.000
1333.000,1339.000,1356.000
1336.000,1336.000,1351.000
1368.000,1338.000,1332.000
1345.000,1347.000,1353.000
1349.000,1358.000,1347.000
1371.000,1362.000,1355.000
1356.000,1371.000,1363.000
1382.000,1378.000,1368.000
1382.000,1385.000,1384.000
1375.000,1390.000,1377.000
1391.000,1406.000,1393.000
1400.000,1403.000,1397.000
1418.000,1401.000,1412.000
1426.000,1408.000,1421.000
1421.000,1431.000,1422.000
1439.000,1435.000,1439.000
1431.000,1427.000,1435.000
1445.000,1443.000,1440.000
1436.000,1457.000,1463.000
1462.000,1451.000,1450.000
1443.000,1467.000,1459.000
1474.000,1448.000,1469.000
1462.000,1458.000,1453.000
1463.000,1446.000,1474.000
1471.000,1467.000,1476.000
1481.000,1483.000,1481.000
1499.000,1485.000,1491.000
1495.000,1517.000,1498.000
1512.000,1517.000,1530.000
1529.000,1527.000,1543.000
1541.000,1556.000,1537.000
1556.000,1567.000,1563.000
1579.000,1593.000,1579.000
1600.000,1585.000,1570.000
1605.000,1602.000,1622.000
1656.000,1652.000,1641.000
1656.000,1660.000,1658.000
1692.000,1707.000,1667.000
1716.000,1715.000,1707.000
1719.000,1745.000,1740.000
1738.000,1750.000,1753.000
1784.000,1763.000,1751.000
1784.000,1800.000,1803.000
1772.000,1802.000,1756.000
1790.000,1823.000,1796.000
1838.000,1845.000,1814.000
1871.000,1856.000,1828.000
1848.000,1893.000,1861.000
1860.000,1911.000,1876.000
1923.000,1895.000,1914.000
1920.000,1940.000,1931.000
1977.000,1982.000,1962.000
1992.000,2003.000,1988.000
2075.000,2073.000,2075.000
2140.000,2151.000,2087.000
2206.000,2207.000,2184.000
2269.000,2356.000,2280.000
2424.000,2480.000,2433.000
2581.000,2662.000,2521.000
2775.000,2865.000,2761.000
3047.000,3143.000,2995.000
3244.000,3403.000,3206.000
3534.000,3726.000,3508.000
3856.000,4034.000,3735.000
4066.000,4230.000,3935.000
4323.000,4425.000,4153.000
4340.000,4653.000,4269.000
4478.000,4717.000,4438.000
4544.000,4850.000,4347.000
4456.000,4813.000,4333.000
4327.000,4632.000,4276.000
4246.000,4463.000,4116.000
4020.000,4201.000,3849.000
3801.000,3944.000,3711.000
3696.000,3753.000,3554.000
3624.000,3644.000,3540.000
3696.000,3695.000,3587.000
3774.000,3771.000,3608.000
3928.000,3991.000,3707.000
4120.000,4199.000,3956.000
4572.000,4666.000,4423.000
5443.000,5387.000,5028.000
7098.000,6971.000,6363.000
11068.000,10615.000,9937.000
23787.000,22584.000,21471.000
61834.000,61818.000,61816.000
62262.000,62262.000,62262.000
62176.000,62183.000,62178.000
62114.000,62114.000,62115.000
62122.000,62126.000,62126.000
62114.000,62125.000,62119.000
62093.000,62099.000,62100.000
62091.000,62091.000,62095.000
62100.000,62101.000,62097.000
62088.000,62091.000,62090.000
62087.000,62086.000,62081.000
62091.000,62087.000,62091.000
62086.000,62086.000,62091.000
62080.000,62086.000,62086.000
62079.000,62083.000,62086.000
62084.000,62083.000,62088.000
62080.000,62086.000,62083.000
62077.000,62082.000,62083.000
62084.000,62082.000,62089.000
62077.000,62082.000,62084.000
62076.000,62082.000,62082.000
62079.000,62082.000,62081.000
62079.000,62087.000,62082.000
62079.000,62083.000,62082.000
62073.000,62084.000,62083.000
62073.000,62075.000,62084.000
62076.000,62081.000,62080.000
62081.000,62078.000,62080.000
62078.000,62084.000,62076.000
62075.000,62082.000,62076.000
62078.000,62081.000,62084.000
62081.000,62081.000,62077.000
62082.000,62082.000,62079.000
62078.000,62078.000,62081.000
62078.000,62077.000,62080.000
62079.000,62078.000,62085.000
62078.000,62082.000,62084.000
62078.000,62083.000,62078.000
62076.000,62074.000,62077.000
62076.000,62079.000,62076.000
62079.000,62083.000,62076.000
62078.000,62081.000,62079.000
62072.000,62085.000,62079.000
62081.000,62082.000,62078.000
62078.000,62081.000,62076.000
62077.000,62083.000,62082.000
62080.000,62085.000,62082.000
62078.000,62088.000,62077.000
62080.000,62082.000,62079.000
62080.000,62082.000,62087.000
62082.000,62095.000,62100.000
62106.000,62114.000,62114.000
62065.000,42837.000,22916.000
1694.000,1627.000,1591.000
1567.000,1549.000,1557.000
1551.000,1506.000,1559.000
1524.000,1523.000,1520.000
1516.000,1538.000,1500.000
1494.000,1497.000,1484.000
1488.000,1503.000,1496.000
1492.000,1481.000,1468.000
1496.000,1465.000,1475.000
1469.000,1483.000,1450.000
1463.000,1456.000,1459.000
1446.000,1455.000,1460.000
1442.000,1426.000,1441.000
1441.000,1442.000,1426.000
1436.000,1420.000,1430.000
1428.000,1414.000,1437.000
1419.000,1428.000,1428.000
1423.000,1414.000,1426.000
1409.000,1418.000,1418.000
1400.000,1393.000,1403.000
1413.000,1417.000,1419.000
1403.000,1402.000,1402.000
1407.000,1416.000,1398.000
1400.000,1394.000,1394.000
1389.000,1395.000,1395.000
1404.000,1390.000,1397.000
1399.000,1394.000,1400.000
1407.000,1384.000,1391.000
1397.000,1376.000,1382.000
1377.000,1387.000,1374.000
1377.000,1384.000,1378.000
1372.000,1353.000,1371.000
1375.000,1371.000,1368.000
1371.000,1375.000,1364.000
1351.000,1359.000,1364.000
1355.000,1356.000,1355.000
1361.000,1351.000,1360.000
1364.000,1371.000,1358.000
1355.000,1351.000,1367.000
1355.000,1348.000,1348.000
1362.000,1352.000,1348.000
1355.000,1360.000,1340.000
1348.000,1354.000,1346.000
1336.000,1349.000,1338.000
1331.000,1343.000,1344.000
1338.000,1344.000,1337.000
1331.000,1346.000,1343.000
1337.000,1344.000,1341.000
1337.000,1326.000,1339.000
1329.000,1334.000,1339.000
1332.000,1324.000,1320.000
1328.000,1337.000,1326.000
1329.000,1334.000,1320.000
1338.000,1315.000,1326.000
1327.000,1319.000,1338.000
1330.000,1319.000,1327.000
1334.000,1323.000,1326.000
1323.000,1307.000,1318.000
1320.000,1319.000,1325.000
1312.000,1323.000,1330.000
1316.000,1308.000,1309.000
1328.000,1305.000,1299.000
1314.000,1321.000,1307.000
1307.000,1310.000,1327.000
1309.000,1315.000,1311.000
1315.000,1313.000,1303.000
1305.000,1316.000,1307.000
1321.000,1315.000,1313.000
1307.000,1313.000,1308.000
1310.000,1306.000,1312.000
1309.000,1299.000,1306.000
1310.000,1307.000,1304.000
1305.000,1309.000,1305.000
1302.000,1303.000,1306.000
1297.000,1310.000,1306.000
1303.000,1304.000,1298.000
1304.000,1296.000,1302.000
1303.000,1302.000,1312.000
1304.000,1295.000,1295.000
1307.000,1304.000,1291.000
1299.000,1293.000,1298.000
1301.000,1291.000,1304.000
1293.000,1296.000,1301.000
1302.000,1306.000,1289.000
1300.000,1299.000,1294.000
1300.000,1293.000,1290.000
1296.000,1292.000,1300.000
1289.000,1294.000,1300.000
1290.000,1294.000,1297.000
1302.000,1295.000,1283.000
1291.000,1294.000,1286.000
1297.000,1297.000,1291.000
1291.000,1289.000,1291.000
1284.000,1287.000,1295.000
1287.000,1303.000,1290.000
1298.000,1291.000,1299.000
1282.000,1291.000,1290.000
1295.000,1300.000,1288.000
1293.000,1291.000,1302.000
1285.000,1294.000,1300.000
1301.000,1284.000,1281.000
1295.000,1291.000,1294.000
1290.000,1281.000,1299.000
1290.000,1300.000,1291.000
1290.000,1296.000,1293.000
1288.000,1286.000,1291.000
1297.000,1298.000,1295.000
1300.000,1307.000,1299.000
1304.000,1313.000,1309.000
1309.000,1309.000,1307.000
1305.000,1310.000,1297.000
1317.000,1304.000,1315.000
1313.000,1318.000,1311.000
1329.000,1313.000,1314.000
1316.000,1316.000,1313.000
1325.000,1322.000,1331.000
1331.000,1357.000,1345.000
1349.000,1346.000,1345.000
1369.000,1359.000,1357.000
1362.000,1374.000,1375.000
1391.000,1392.000,1376.000
1401.000,1406.000,1396.000
1427.000,1420.000,1426.000
1456.000,1438.000,1444.000
1468.000,1481.000,1472.000
1523.000,1507.000,1517.000
1564.000,1548.000,1531.000
1590.000,1602.000,1606.000
1653.000,1682.000,1645.000
1724.000,1694.000,1720.000
1818.000,1820.000,1792.000
1885.000,1881.000,1894.000
2019.000,2004.000,2002.000
2113.000,2176.000,2121.000
2254.000,2273.000,2249.000
2427.000,2447.000,2430.000
2615.000,2619.000,2589.000
2778.000,2792.000,2808.000
3054.000,3019.000,3032.000
3294.000,3299.000,3265.000
3527.000,3504.000,3527.000
3740.000,3733.000,3749.000
4001.000,4042.000,3980.000
4267.000,4279.000,4228.000
4503.000,4493.000,4447.000
4747.000,4690.000,4741.000
4921.000,4987.000,4943.000
5043.000,5072.000,5053.000
5215.000,5207.000,5187.000
5374.000,5359.000,5373.000
5428.000,5437.000,5347.000
5538.000,5467.000,5474.000
5569.000,5511.000,5440.000
5495.000,5527.000,5539.000
5547.000,5538.000,5482.000
5587.000,5596.000,5569.000
5593.000,5534.000,5544.000
5638.000,5538.000,5575.000
5636.000,5627.000,5604.000
5556.000,5548.000,5557.000
5511.000,5582.000,5517.000
5485.000,5513.000,5504.000
5535.000,5530.000,5547.000
5552.000,5548.000,5579.000
5496.000,5535.000,5492.000
5529.000,5577.000,5519.000
5529.000,5465.000,5532.000
5570.000,5473.000,5544.000
5536.000,5575.000,5470.000
5549.000,5563.000,5512.000
5552.000,5571.000,5502.000
5557.000,5494.000,5567.000
5531.000,5501.000,5546.000
5520.000,5548.000,5455.000
5477.000,5532.000,5500.000
5516.000,5498.000,5536.000
5556.000,5577.000,5533.000
5574.000,5553.000,5540.000
5475.000,5517.000,5526.000
5498.000,5532.000,5507.000
5541.000,5524.000,5518.000
5485.000,5470.000,5538.000
5545.000,5535.000,5517.000
5475.000,5488.000,5543.000
5518.000,5545.000,5556.000
5511.000,5523.000,5510.000
5545.000,5526.000,5462.000
5460.000,5513.000,5483.000
5549.000,5559.000,5541.000
5507.000,5575.000,5481.000
5460.000,5534.000,5624.000
5592.000,5591.000,5566.000
5593.000,5581.000,5535.000
5558.000,5589.000,5509.000
5609.000,5587.000,5600.000
5588.000,5622.000,5511.000
5601.000,5616.000,5621.000
5611.000,5602.000,5513.000
5675.000,5604.000,5593.000
5679.000,5616.000,5614.000
5685.000,5723.000,5597.000
5683.000,5754.000,5636.000
5689.000,5656.000,5707.000
5727.000,5660.000,5663.000
5752.000,5695.000,5701.000
5740.000,5747.000,5719.000
5702.000,5697.000,5710.000
5771.000,5705.000,5646.000
5726.000,5711.000,5797.000
5771.000,5759.000,5696.000
5749.000,5739.000,5686.000
5826.000,5743.000,5774.000
5732.000,5763.000,5747.000
5780.000,5759.000,5735.000
5776.000,5807.000,5820.000
5779.000,5741.000,5752.000
5786.000,5761.000,5806.000
5811.000,5791.000,5760.000
5794.000,5769.000,5802.000
5925.000,5845.000,5824.000
5909.000,5877.000,5838.000
5788.000,5919.000,5839.000
5864.000,5869.000,5839.000
5878.000,5836.000,5772.000
5859.000,5811.000,5801.000
5897.000,5834.000,5814.000
5852.000,5847.000,5831.000
5867.000,5914.000,5835.000
5965.000,5855.000,5832.000
5946.000,5908.000,5885.000
6012.000,5979.000,5936.000
5961.000,5964.000,5901.000
6011.000,6016.000,5949.000
5973.000,5967.000,6000.000
6041.000,5977.000,5920.000
6014.000,6034.000,5904.000
6061.000,5974.000,5942.000
6024.000,5982.000,5966.000
6062.000,6046.000,6009.000
6045.000,6012.000,6059.000
6078.000,6000.000,6016.000
6023.000,5977.000,6027.000
6047.000,6058.000,5955.000
6005.000,5981.000,6072.000
6046.000,6146.000,6000.000
6036.000,6071.000,6051.000
6040.000,6030.000,6082.000
6113.000,6086.000,6080.000
6036.000,6017.000,6092.000
6090.000,6145.000,6096.000
6151.000,6011.000,6063.000
6080.000,6127.000,6088.000
6160.000,6151.000,6097.000
6131.000,6150.000,6102.000
6201.000,6113.000,6105.000
6124.000,6171.000,6195.000
6238.000,6182.000,6239.000
6237.000,6236.000,6270.000
6270.000,6219.000,6168.000
6299.000,6171.000,6225.000
6344.000,6306.000,6300.000
6366.000,6291.000,6296.000
6325.000,6290.000,6289.000
6353.000,6277.000,6263.000
6427.000,6346.000,6321.000
6448.000,6403.000,6351.000
6555.000,6509.000,6310.000
6534.000,6507.000,6498.000
6651.000,6586.000,6580.000
6735.000,6636.000,6674.000
6714.000,6646.000,6641.000
6745.000,6755.000,6722.000
6855.000,6817.000,6864.000
6899.000,6927.000,6888.000
7099.000,6985.000,6958.000
7067.000,7051.000,7020.000
7167.000,7103.000,7106.000
7243.000,7125.000,7215.000
7229.000,7134.000,7222.000
7201.000,7308.000,7299.000
7231.000,7297.000,7253.000
7324.000,7296.000,7311.000
7222.000,7255.000,7248.000
7243.000,7252.000,7215.000
7248.000,7201.000,7094.000
7139.000,7037.000,7094.000
7077.000,7059.000,7040.000
7031.000,6930.000,6987.000
6938.000,6943.000,6912.000
6914.000,6870.000,6871.000
6855.000,6902.000,6845.000
6791.000,6774.000,6652.000
6691.000,6651.000,6668.000
6682.000,6647.000,6630.000
6618.000,6533.000,6566.000
6579.000,6514.000,6495.000
6542.000,6501.000,6544.000
6420.000,6431.000,6553.000
6482.000,6500.000,6383.000
6379.000,6446.000,6425.000
6493.000,6430.000,6468.000
6289.000,6407.000,6404.000
6378.000,6371.000,6363.000
6333.000,6362.000,6234.000
6325.000,6359.000,6295.000
6274.000,6293.000,6323.000
6293.000,6323.000,6277.000
6321.000,6336.000,6191.000
6268.000,6271.000,6279.000
6268.000,6298.000,6310.000
6247.000,6304.000,6196.000
6251.000,6209.000,6200.000
6176.000,6207.000,6170.000
6195.000,6248.000,6215.000
6265.000,6147.000,6219.000
6175.000,6256.000,6293.000
6213.000,6207.000,6273.000
6301.000,6204.000,6174.000
6249.000,6308.000,6230.000
6219.000,6250.000,6202.000
6259.000,6257.000,6247.000
6250.000,6140.000,6291.000
6240.000,6350.000,6236.000
6330.000,6286.000,6263.000
6218.000,6147.000,6233.000
6310.000,6309.000,6231.000
6295.000,6212.000,6204.000
6296.000,6263.000,6192.000
6242.000,6235.000,6261.000
6237.000,6234.000,6252.000
6245.000,6144.000,6155.000
6152.000,6218.000,6245.000
6169.000,6177.000,6169.000
6133.000,6160.000,6122.000
6020.000,6127.000,6046.000
6082.000,6110.000,6039.000
6074.000,6089.000,6056.000
6111.000,6141.000,6068.000
6019.000,6028.000,6008.000
5969.000,5928.000,6003.000
5966.000,5952.000,5921.000
5953.000,5908.000,5874.000
6006.000,5924.000,5936.000
5962.000,5875.000,5929.000
6010.000,5889.000,5817.000
5862.000,5870.000,5875.000
5872.000,5823.000,5862.000
5927.000,5886.000,5852.000
5898.000,5851.000,5813.000
5807.000,5839.000,5847.000
5826.000,5846.000,5840.000
5880.000,5831.000,5782.000
5819.000,5828.000,5802.000
5799.000,5825.000,5798.000
5865.000,5820.000,5869.000
5784.000,5833.000,5762.000
5826.000,5801.000,5775.000
5822.000,5764.000,5799.000
5805.000,5770.000,5804.000
5808.000,5746.000,5762.000
5836.000,5759.000,5743.000
5730.000,5741.000,5716.000
5794.000,5647.000,5733.000
5748.000,5731.000,5696.000
5737.000,5748.000,5670.000
5771.000,5792.000,5609.000
5755.000,5737.000,5685.000
5777.000,5768.000,5739.000
5767.000,5724.000,5775.000
5707.000,5720.000,5727.000
5706.000,5703.000,5673.000
5769.000,5685.000,5733.000
5667.000,5765.000,5725.000
5739.000,5760.000,5763.000
5779.000,5754.000,5758.000
5758.000,5706.000,5760.000
5773.000,5777.000,5696.000
5788.000,5777.000,5678.000
5770.000,5754.000,5792.000
5813.000,5776.000,5711.000
5755.000,5743.000,5766.000
5769.000,5760.000,5720.000
5779.000,5792.000,5714.000
5744.000,5693.000,5755.000
5806.000,5796.000,5803.000
5846.000,5820.000,5755.000
5838.000,5782.000,5798.000
5755.000,5769.000,5779.000
5769.000,5738.000,5739.000
5792.000,5822.000,5759.000
5786.000,5767.000,5778.000
5847.000,5740.000,5811.000
5807.000,5836.000,5822.000
5812.000,5860.000,5763.000
5775.000,5848.000,5803.000
5808.000,5868.000,5710.000
5755.000,5832.000,5753.000
5821.000,5758.000,5831.000
5775.000,5779.000,5725.000
5808.000,5784.000,5760.000
5784.000,5823.000,5824.000
5727.000,5776.000,5743.000
5810.000,5763.000,5759.000
5783.000,5820.000,5743.000
5791.000,5793.000,5845.000
5837.000,5831.000,5795.000
5773.000,5764.000,5816.000
5895.000,5810.000,5781.000
5844.000,5776.000,5838.000
5913.000,5841.000,5881.000
5884.000,5783.000,5771.000
5828.000,5800.000,5820.000
5871.000,5855.000,5856.000
5854.000,5823.000,5832.000
5833.000,5825.000,5825.000
5832.000,5758.000,5799.000
5766.000,5860.000,5828.000
5801.000,5836.000,5818.000
5844.000,5755.000,5756.000
5817.000,5759.000,5750.000
5780.000,5760.000,5729.000
5755.000,5764.000,5752.000
5722.000,5662.000,5709.000
5775.000,5752.000,5732.000
5749.000,5762.000,5794.000
5732.000,5826.000,5737.000
5739.000,5705.000,5739.000
5732.000,5741.000,5778.000
5718.000,5648.000,5731.000
5752.000,5711.000,5706.000
5699.000,5695.000,5713.000
5733.000,5643.000,5783.000
5778.000,5689.000,5731.000
5738.000,5625.000,5660.000
5670.000,5690.000,5619.000
5673.000,5685.000,5699.000
5721.000,5688.000,5647.000
5737.000,5731.000,5640.000
5683.000,5635.000,5619.000
5676.000,5707.000,5700.000
5717.000,5665.000,5647.000
5664.000,5636.000,5712.000
5718.000,5725.000,5715.000
5704.000,5748.000,5682.000
5742.000,5685.000,5684.000
5684.000,5690.000,5703.000
5702.000,5691.000,5694.000
5705.000,5771.000,5720.000
5714.000,5684.000,5690.000
5719.000,5648.000,5663.000
5694.000,5706.000,5612.000
5745.000,5620.000,5657.000
5745.000,5626.000,5701.000
5735.000,5596.000,5661.000
5691.000,5715.000,5632.000
5650.000,5622.000,5693.000
5707.000,5665.000,5616.000
5650.000,5682.000,5682.000
5668.000,5666.000,5647.000
5680.000,5654.000,5590.000
5670.000,5674.000,5682.000
5665.000,5664.000,5615.000
5657.000,5685.000,5615.000
5697.000,5691.000,5719.000
5689.000,5655.000,5689.000
5600.000,5704.000,5705.000
5736.000,5674.000,5718.000
5660.000,5732.000,5618.000
5758.000,5614.000,5707.000
5713.000,5682.000,5651.000
5707.000,5706.000,5731.000
5651.000,5702.000,5634.000
5711.000,5666.000,5629.000
5710.000,5711.000,5679.000
5682.000,5591.000,5581.000
5736.000,5654.000,5654.000
5739.000,5716.000,5660.000
5698.000,5641.000,5669.000
5714.000,5781.000,5701.000
5681.000,5735.000,5720.000
5699.000,5763.000,5679.000
5652.000,5719.000,5698.000
5667.000,5660.000,5696.000
5730.000,5714.000,5664.000
5742.000,5641.000,5670.000
5714.000,5683.000,5751.000
5695.000,5736.000,5626.000
5681.000,5690.000,5676.000
5706.000,5670.000,5629.000
5769.000,5715.000,5681.000
5695.000,5726.000,5714.000
5647.000,5703.000,5711.000
5664.000,5631.000,5687.000
5682.000,5706.000,5643.000
5699.000,5697.000,5725.000
5617.000,5687.000,5668.000
5686.000,5726.000,5694.000
5730.000,5697.000,5589.000
5746.000,5708.000,5734.000
5670.000,5722.000,5637.000
5745.000,5723.000,5671.000
5674.000,5646.000,5740.000
5668.000,5655.000,5658.000
5715.000,5680.000,5683.000
5717.000,5672.000,5650.000
5736.000,5663.000,5655.000
5697.000,5752.000,5744.000
5746.000,5721.000,5656.000
5758.000,5692.000,5656.000
5782.000,5694.000,5666.000
5720.000,5678.000,5676.000
5724.000,5680.000,5690.000
5646.000,5741.000,5673.000
5806.000,5670.000,5700.000
5701.000,5713.000,5715.000
5748.000,5629.000,5694.000
5738.000,5666.000,5669.000
5702.000,5709.000,5584.000
5628.000,5675.000,5741.000
5677.000,5670.000,5653.000
5645.000,5633.000,5656.000
5670.000,5735.000,5663.000
5692.000,5720.000,5686.000
5743.000,5678.000,5704.000
5722.000,5669.000,5741.000
5653.000,5664.000,5680.000
5676.000,5710.000,5631.000
5677.000,5693.000,5656.000
5665.000,5673.000,5694.000
5729.000,5715.000,5677.000
5715.000,5700.000,5623.000
5669.000,5622.000,5624.000
5692.000,5668.000,5642.000
5668.000,5711.000,5696.000
5712.000,5770.000,5698.000
5717.000,5681.000,5707.000
5667.000,5778.000,5694.000
5706.000,5644.000,5686.000
5677.000,5682.000,5654.000
5728.000,5730.000,5711.000
5672.000,5697.000,5695.000
5747.000,5657.000,5677.000
5654.000,5707.000,5676.000
5675.000,5617.000,5634.000
5711.000,5669.000,5606.000
5750.000,5674.000,5604.000
5728.000,5723.000,5695.000
5714.000,5666.000,5642.000
5729.000,5712.000,5619.000
5686.000,5610.000,5722.000
5796.000,5679.000,5698.000
5753.000,5605.000,5696.000
5646.000,5631.000,5657.000
5706.000,5691.000,5668.000
5693.000,5705.000,5713.000
5675.000,5710.000,5687.000
5721.000,5723.000,5679.000
5724.000,5707.000,5640.000
5789.000,5638.000,5636.000
5776.000,5723.000,5684.000
5700.000,5645.000,5677.000
5693.000,5674.000,5694.000
5653.000,5673.000,5723.000
5690.000,5697.000,5616.000
5686.000,5632.000,5611.000
5780.000,5624.000,5690.000
5738.000,5675.000,5610.000
5730.000,5628.000,5650.000
5744.000,5669.000,5699.000
5736.000,5731.000,5735.000
5797.000,5771.000,5716.000
5770.000,5718.000,5645.000
5747.000,5735.000,5766.000
5761.000,5713.000,5691.000
5793.000,5729.000,5679.000
5736.000,5775.000,5689.000
5709.000,5788.000,5734.000
5761.000,5846.000,5739.000
5745.000,5778.000,5760.000
5796.000,5730.000,5811.000
5777.000,5700.000,5763.000
5830.000,5726.000,5788.000
5787.000,5753.000,5774.000
5778.000,5814.000,5762.000
5886.000,5735.000,5828.000
5882.000,5830.000,5811.000
5835.000,5900.000,5730.000
5838.000,5864.000,5805.000
5861.000,5863.000,5794.000
5799.000,5796.000,5765.000
5831.000,5801.000,5794.000
5913.000,5854.000,5821.000
5797.000,5809.000,5827.000
5892.000,5813.000,5892.000
5829.000,5848.000,5762.000
5828.000,5783.000,5821.000
5863.000,5863.000,5840.000
5870.000,5836.000,5856.000
5818.000,5883.000,5807.000
5879.000,5860.000,5781.000
5806.000,5811.000,5839.000
5837.000,5842.000,5802.000
5862.000,5881.000,5884.000
5838.000,5807.000,5790.000
5944.000,5845.000,5909.000
5937.000,5869.000,5873.000
5904.000,5875.000,5895.000
5866.000,5935.000,5920.000
5917.000,5950.000,5906.000
5945.000,5916.000,5904.000
6005.000,5933.000,5929.000
5903.000,5989.000,5915.000
5955.000,5965.000,5935.000
5955.000,5986.000,5892.000
6014.000,6010.000,5956.000
5921.000,5920.000,5929.000
5970.000,5918.000,5974.000
6027.000,6000.000,5992.000
6008.000,6045.000,6033.000
6028.000,6022.000,6060.000
6087.000,6045.000,6075.000
6149.000,6132.000,6087.000
6130.000,6116.000,6082.000
6077.000,6109.000,6035.000
6069.000,6104.000,6074.000
6187.000,6151.000,6210.000
6151.000,6249.000,6192.000
6290.000,6308.000,6236.000
6383.000,6327.000,6337.000
6461.000,6357.000,6402.000
6492.000,6449.000,6459.000
6585.000,6572.000,6470.000
6672.000,6650.000,6589.000
6790.000,6805.000,6887.000
6954.000,6947.000,6978.000
7211.000,7165.000,7044.000
7453.000,7482.000,7501.000
7764.000,7819.000,7726.000
8222.000,8157.000,8231.000
8668.000,8624.000,8709.000
9350.000,9402.000,9367.000
10094.000,10077.000,10090.000
10914.000,11025.000,10918.000
11955.000,11814.000,11794.000
12791.000,12979.000,12853.000
13777.000,13770.000,13713.000
14556.000,14507.000,14640.000
15051.000,15133.000,15191.000
15587.000,15516.000,15445.000
15610.000,15752.000,15663.000
15415.000,15423.000,15503.000
15005.000,15111.000,15006.000
14254.000,14316.000,14266.000
13309.000,13361.000,13225.000
12359.000,12364.000,12403.000
11581.000,11422.000,11334.000
10547.000,10534.000,10538.000
9707.000,9703.000,9724.000
8947.000,9041.000,8968.000
8429.000,8382.000,8417.000
7927.000,7923.000,7881.000
7463.000,7529.000,7472.000
7233.000,7117.000,7183.000
6916.000,6895.000,7013.000
6761.000,6754.000,6786.000
6626.000,6598.000,6527.000
6531.000,6419.000,6434.000
6361.000,6316.000,6391.000
6256.000,6271.000,6262.000
6204.000,6131.000,6245.000
6074.000,6176.000,6161.000
6086.000,6077.000,6116.000
6051.000,6029.000,6071.000
5931.000,6011.000,5963.000
6002.000,5962.000,5965.000
5934.000,5886.000,5965.000
5947.000,5899.000,5883.000
5864.000,5903.000,5828.000
5831.000,5840.000,5878.000
5834.000,5838.000,5842.000
5816.000,5776.000,5825.000
5891.000,5781.000,5783.000
5741.000,5770.000,5769.000
5790.000,5745.000,5804.000
5782.000,5692.000,5797.000
5665.000,5657.000,5689.000
5729.000,5693.000,5712.000
5724.000,5635.000,5783.000
5740.000,5701.000,5614.000
5715.000,5671.000,5683.000
5734.000,5703.000,5661.000
5730.000,5640.000,5718.000
5672.000,5750.000,5670.000
5691.000,5698.000,5673.000
5735.000,5620.000,5674.000
5663.000,5628.000,5680.000
5690.000,5611.000,5660.000
5701.000,5636.000,5551.000
5697.000,5625.000,5611.000
5627.000,5687.000,5593.000
5610.000,5613.000,5615.000
5639.000,5614.000,5620.000
5661.000,5570.000,5577.000
5607.000,5602.000,5508.000
5631.000,5593.000,5528.000
5718.000,5635.000,5608.000
5597.000,5609.000,5548.000
5575.000,5583.000,5625.000
5627.000,5597.000,5542.000
5570.000,5563.000,5575.000
5568.000,5579.000,5523.000
5624.000,5551.000,5560.000
5544.000,5507.000,5528.000
5587.000,5495.000,5588.000
5538.000,5522.000,5536.000
5501.000,5530.000,5546.000
5543.000,5505.000,5463.000
5581.000,5588.000,5551.000
5614.000,5540.000,5519.000
5526.000,5503.000,5521.000
5543.000,5553.000,5487.000
5538.000,5600.000,5481.000
5577.000,5500.000,5504.000
5548.000,5492.000,5488.000
5527.000,5460.000,5472.000
5527.000,5432.000,5421.000
5554.000,5519.000,5507.000
5547.000,5454.000,5489.000
5481.000,5501.000,5449.000
5501.000,5462.000,5477.000
5520.000,5496.000,5480.000
5439.000,5439.000,5407.000
5515.000,5520.000,5524.000
5467.000,5407.000,5444.000
5524.000,5441.000,5396.000
5477.000,5487.000,5433.000
5393.000,5478.000,5475.000
5465.000,5544.000,5467.000
5481.000,5514.000,5406.000
5499.000,5523.000,5482.000
5464.000,5454.000,5464.000
5518.000,5438.000,5435.000
5493.000,5543.000,5492.000
5501.000,5499.000,5495.000
5460.000,5446.000,5481.000
5499.000,5419.000,5510.000
5529.000,5458.000,5485.000
5494.000,5538.000,5458.000
5507.000,5552.000,5485.000
5543.000,5490.000,5402.000
5571.000,5491.000,5486.000
5475.000,5430.000,5491.000
5544.000,5442.000,5498.000
5527.000,5547.000,5515.000
5582.000,5589.000,5455.000
5561.000,5551.000,5507.000
5511.000,5551.000,5568.000
5615.000,5564.000,5535.000
5544.000,5572.000,5539.000
5626.000,5536.000,5541.000
5597.000,5498.000,5616.000
5533.000,5547.000,5543.000
5532.000,5631.000,5530.000
5660.000,5625.000,5536.000
5585.000,5575.000,5525.000
5643.000,5571.000,5556.000
5652.000,5588.000,5620.000
5651.000,5566.000,5592.000
5647.000,5722.000,5610.000
5668.000,5610.000,5551.000
5626.000,5651.000,5576.000
5708.000,5709.000,5632.000
5708.000,5669.000,5752.000
5685.000,5719.000,5719.000
5737.000,5787.000,5727.000
5784.000,5739.000,5770.000
5871.000,5807.000,5776.000
5823.000,5815.000,5844.000
5951.000,5930.000,5876.000
5930.000,5942.000,5942.000
6036.000,5966.000,5995.000
6100.000,6016.000,6017.000
6049.000,6081.000,6101.000
6215.000,6205.000,6175.000
6233.000,6196.000,6283.000
6303.000,6383.000,6305.000
6424.000,6429.000,6491.000
6541.000,6583.000,6484.000
6654.000,6660.000,6759.000
6872.000,6897.000,6834.000
7049.000,7027.000,6974.000
7187.000,7096.000,7195.000
7418.000,7385.000,7362.000
7532.000,7581.000,7491.000
7735.000,7742.000,7688.000
7913.000,7900.000,7926.000
8099.000,8022.000,8051.000
8090.000,8154.000,8144.000
8220.000,8182.000,8213.000
8189.000,8203.000,8182.000
8142.000,8096.000,8089.000
8050.000,8064.000,8069.000
8036.000,8070.000,8030.000
7899.000,7898.000,7922.000
7791.000,7664.000,7718.000
7609.000,7642.000,7533.000
7461.000,7382.000,7363.000
7297.000,7258.000,7284.000
7127.000,7131.000,7111.000
6887.000,6996.000,6956.000
6865.000,6860.000,6877.000
6776.000,6750.000,6774.000
6659.000,6620.000,6620.000
6571.000,6609.000,6616.000
6522.000,6519.000,6632.000
6549.000,6571.000,6565.000
6536.000,6481.000,6446.000
6493.000,6454.000,6448.000
6555.000,6517.000,6517.000
6521.000,6493.000,6429.000
6498.000,6511.000,6533.000
6592.000,6501.000,6510.000
6656.000,6538.000,6607.000
6638.000,6701.000,6733.000
6748.000,6666.000,6679.000
6805.000,6791.000,6782.000
6824.000,6821.000,6815.000
6827.000,6835.000,6974.000
6947.000,6996.000,6935.000
7063.000,7130.000,7107.000
7152.000,7132.000,7117.000
7283.000,7223.000,7272.000
7328.000,7366.000,7329.000
7586.000,7450.000,7439.000
7483.000,7503.000,7462.000
7596.000,7545.000,7640.000
7649.000,7551.000,7593.000
7706.000,7690.000,7638.000
7718.000,7583.000,7647.000
7540.000,7571.000,7606.000
7572.000,7587.000,7433.000
7378.000,7435.000,7389.000
7285.000,7269.000,7244.000
7126.000,7131.000,7092.000
6934.000,6982.000,6964.000
6795.000,6797.000,6883.000
6666.000,6660.000,6690.000
6536.000,6521.000,6525.000
6379.000,6385.000,6433.000
6314.000,6303.000,6188.000
6188.000,6137.000,6106.000
6034.000,6083.000,5999.000
5955.000,6003.000,5967.000
5932.000,5947.000,5886.000
5908.000,5875.000,5819.000
5881.000,5795.000,5775.000
5763.000,5685.000,5671.000
5726.000,5730.000,5699.000
5675.000,5658.000,5621.000
5618.000,5670.000,5598.000
5593.000,5615.000,5587.000
5606.000,5538.000,5622.000
5627.000,5568.000,5520.000
5556.000,5579.000,5573.000
5630.000,5595.000,5588.000
5556.000,5568.000,5563.000
5544.000,5584.000,5529.000
5536.000,5527.000,5569.000
5637.000,5493.000,5509.000
5517.000,5556.000,5533.000
5520.000,5515.000,5468.000
5500.000,5491.000,5528.000
5517.000,5497.000,5412.000
5445.000,5387.000,5409.000
5473.000,5400.000,5418.000
5346.000,5410.000,5377.000
5304.000,5387.000,5284.000
5299.000,5278.000,5262.000
5213.000,5283.000,5219.000
5190.000,5204.000,5234.000
5273.000,5245.000,5199.000
5143.000,5110.000,5192.000
5168.000,5113.000,5104.000
5117.000,5186.000,5134.000
5108.000,5041.000,5085.000
5091.000,5004.000,4995.000
4998.000,5074.000,5014.000
4968.000,5032.000,4991.000
5023.000,4945.000,4962.000
4963.000,5017.000,5038.000
4939.000,4873.000,4924.000
4960.000,4862.000,4916.000
4872.000,4800.000,4907.000
4883.000,4839.000,4908.000
4794.000,4847.000,4832.000
4897.000,4918.000,4847.000
4870.000,4821.000,4878.000
4814.000,4827.000,4801.000
4938.000,4837.000,4851.000
4873.000,4899.000,4844.000
4829.000,4783.000,4820.000
4845.000,4787.000,4796.000
4815.000,4787.000,4754.000
4822.000,4812.000,4762.000
4765.000,4824.000,4832.000
4753.000,4716.000,4698.000
4799.000,4769.000,4766.000
4763.000,4753.000,4703.000
4797.000,4767.000,4724.000
4667.000,4759.000,4674.000
4709.000,4744.000,4678.000
4727.000,4686.000,4715.000
4730.000,4634.000,4639.000
4680.000,4612.000,4621.000
4664.000,4689.000,4678.000
4629.000,4620.000,4581.000
4573.000,4523.000,4622.000
4618.000,4636.000,4583.000
4597.000,4578.000,4527.000
4585.000,4644.000,4644.000
4543.000,4594.000,4608.000
4669.000,4590.000,4587.000
4611.000,4563.000,4576.000
4626.000,4553.000,4579.000
4597.000,4637.000,4598.000
4626.000,4606.000,4618.000
4634.000,4634.000,4534.000
4622.000,4559.000,4576.000
4634.000,4620.000,4612.000
4620.000,4557.000,4641.000
4660.000,4625.000,4579.000
4585.000,4589.000,4590.000
4599.000,4624.000,4627.000
4560.000,4539.000,4558.000
4527.000,4568.000,4527.000
4573.000,4521.000,4524.000
4511.000,4508.000,4564.000
4550.000,4528.000,4473.000
4573.000,4568.000,4554.000
4584.000,4572.000,4547.000
4500.000,4567.000,4540.000
4556.000,4529.000,4609.000
4537.000,4567.000,4555.000
4595.000,4581.000,4538.000
4635.000,4623.000,4552.000
4548.000,4609.000,4604.000
4571.000,4534.000,4627.000
4522.000,4633.000,4565.000
4607.000,4537.000,4558.000
4599.000,4571.000,4557.000
4663.000,4590.000,4536.000
4584.000,4510.000,4531.000
4578.000,4580.000,4582.000
4548.000,4569.000,4503.000
4561.000,4519.000,4534.000
4579.000,4563.000,4552.000
4546.000,4526.000,4533.000
4592.000,4567.000,4580.000
4621.000,4608.000,4597.000
4659.000,4631.000,4598.000
4631.000,4556.000,4591.000
4603.000,4524.000,4620.000
4676.000,4634.000,4553.000
4658.000,4566.000,4594.000
4643.000,4573.000,4657.000
4638.000,4567.000,4618.000
4626.000,4636.000,4586.000
4618.000,4623.000,4629.000
4629.000,4563.000,4534.000
4613.000,4635.000,4547.000
4576.000,4542.000,4617.000
4645.000,4556.000,4671.000
4653.000,4626.000,4668.000
4666.000,4605.000,4683.000
4652.000,4631.000,4587.000
4668.000,4726.000,4616.000
4678.000,4698.000,4672.000
4673.000,4668.000,4726.000
4710.000,4684.000,4704.000
4752.000,4704.000,4679.000
4718.000,4681.000,4701.000
4725.000,4637.000,4719.000
4723.000,4643.000,4600.000
4664.000,4716.000,4767.000
4695.000,4704.000,4685.000
4731.000,4657.000,4648.000
4733.000,4668.000,4663.000
4714.000,4720.000,4675.000
4733.000,4736.000,4759.000
4761.000,4731.000,4751.000
4719.000,4728.000,4760.000
4896.000,4790.000,4861.000
4815.000,4752.000,4840.000
4841.000,4860.000,4818.000
4841.000,4827.000,4846.000
4808.000,4835.000,4781.000
4842.000,4817.000,4804.000
4866.000,4900.000,4876.000
4834.000,4858.000,4752.000
4883.000,4864.000,4852.000
4855.000,4900.000,4883.000
4855.000,4920.000,4890.000
4935.000,4903.000,4936.000
4929.000,4935.000,4911.000
5033.000,5027.000,5020.000
5055.000,4972.000,5027.000
5115.000,5089.000,5038.000
5179.000,5153.000,5123.000
5159.000,5303.000,5244.000
5258.000,5321.000,5262.000
5355.000,5364.000,5304.000
5360.000,5421.000,5447.000
5498.000,5557.000,5449.000
5600.000,5447.000,5532.000
5530.000,5617.000,5568.000
5567.000,5506.000,5545.000
5612.000,5661.000,5567.000
5631.000,5555.000,5578.000
5552.000,5492.000,5483.000
5522.000,5572.000,5566.000
5603.000,5555.000,5505.000
5491.000,5453.000,5490.000
5488.000,5413.000,5459.000
5439.000,5386.000,5393.000
5354.000,5342.000,5407.000
5310.000,5318.000,5317.000
5243.000,5232.000,5291.000
5163.000,5167.000,5211.000
5176.000,5171.000,5225.000
5185.000,5120.000,5176.000
5069.000,5094.000,5069.000
5097.000,5071.000,5068.000
5010.000,5052.000,5037.000
4963.000,4968.000,4956.000
4919.000,4963.000,4926.000
4929.000,4845.000,4934.000
4873.000,4877.000,4852.000
4865.000,4874.000,4838.000
4900.000,4911.000,4772.000
4820.000,4773.000,4787.000
4744.000,4814.000,4830.000
4771.000,4817.000,4757.000
4804.000,4752.000,4740.000
4824.000,4768.000,4756.000
4773.000,4866.000,4759.000
4787.000,4803.000,4802.000
4798.000,4820.000,4729.000
4759.000,4775.000,4717.000
4801.000,4804.000,4802.000
4856.000,4837.000,4811.000
4815.000,4786.000,4845.000
4769.000,4761.000,4798.000
4787.000,4758.000,4802.000
4774.000,4775.000,4775.000
4783.000,4799.000,4758.000
4820.000,4791.000,4747.000
4763.000,4715.000,4802.000
4751.000,4753.000,4711.000
4732.000,4790.000,4748.000
4706.000,4755.000,4691.000
4771.000,4700.000,4702.000
4711.000,4683.000,4669.000
4724.000,4623.000,4683.000
4641.000,4689.000,4691.000
4671.000,4658.000,4676.000
4665.000,4693.000,4616.000
4648.000,4680.000,4660.000
4658.000,4613.000,4689.000
4636.000,4661.000,4619.000
4672.000,4672.000,4694.000
4709.000,4625.000,4651.000
4732.000,4683.000,4663.000
4692.000,4644.000,4686.000
4716.000,4664.000,4692.000
4679.000,4686.000,4711.000
4684.000,4747.000,4693.000
4650.000,4633.000,4715.000
4715.000,4605.000,4694.000
4598.000,4689.000,4730.000
4689.000,4666.000,4637.000
4735.000,4629.000,4624.000
4690.000,4662.000,4752.000
4643.000,4633.000,4652.000
4669.000,4591.000,4634.000
4661.000,4624.000,4623.000
4631.000,4647.000,4575.000
4626.000,4590.000,4563.000
4607.000,4574.000,4534.000
4570.000,4565.000,4618.000
4543.000,4563.000,4588.000
4610.000,4599.000,4557.000
4544.000,4584.000,4545.000
4586.000,4578.000,4591.000
4565.000,4540.000,4614.000
4675.000,4564.000,4593.000
4600.000,4618.000,4603.000
4545.000,4589.000,4588.000
4644.000,4599.000,4500.000
4554.000,4548.000,4633.000
4619.000,4588.000,4615.000
4571.000,4609.000,4595.000
4578.000,4574.000,4602.000
4593.000,4582.000,4620.000
4647.000,4612.000,4576.000
4654.000,4628.000,4599.000
4644.000,4572.000,4607.000
4669.000,4623.000,4527.000
4556.000,4656.000,4635.000
4604.000,4571.000,4666.000
4629.000,4605.000,4597.000
4634.000,4572.000,4605.000
4620.000,4646.000,4619.000
4645.000,4651.000,4587.000
4670.000,4645.000,4635.000
4617.000,4593.000,4583.000
4700.000,4675.000,4682.000
4656.000,4655.000,4634.000
4682.000,4644.000,4643.000
4752.000,4722.000,4643.000
4636.000,4642.000,4603.000
4701.000,4699.000,4693.000
4666.000,4643.000,4660.000
4688.000,4697.000,4713.000
4751.000,4719.000,4693.000
4714.000,4713.000,4685.000
4735.000,4694.000,4636.000
4672.000,4620.000,4695.000
4775.000,4697.000,4679.000
4680.000,4711.000,4636.000
4668.000,4642.000,4646.000
4652.000,4647.000,4622.000
4617.000,4620.000,4645.000
4662.000,4586.000,4626.000
4709.000,4625.000,4671.000
4740.000,4657.000,4690.000
4703.000,4711.000,4727.000
4685.000,4658.000,4704.000
4655.000,4706.000,4647.000
4707.000,4722.000,4711.000
4714.000,4676.000,4729.000
4695.000,4740.000,4670.000
4694.000,4772.000,4738.000
4730.000,4668.000,4757.000
4700.000,4723.000,4650.000
4689.000,4720.000,4727.000
4760.000,4739.000,4755.000
4691.000,4709.000,4697.000
4725.000,4699.000,4762.000
4800.000,4743.000,4756.000
4809.000,4786.000,4748.000
4805.000,4760.000,4788.000
4756.000,4764.000,4771.000
4743.000,4727.000,4726.000
4749.000,4739.000,4724.000
4804.000,4759.000,4809.000
4714.000,4728.000,4775.000
4760.000,4747.000,4744.000
4741.000,4744.000,4744.000
4844.000,4717.000,4719.000
4726.000,4797.000,4747.000
4775.000,4783.000,4719.000
4809.000,4770.000,4754.000
4801.000,4774.000,4806.000
4776.000,4802.000,4803.000
4821.000,4832.000,4781.000
4803.000,4787.000,4803.000
4812.000,4762.000,4805.000
4796.000,4848.000,4822.000
4848.000,4925.000,4865.000
4836.000,4853.000,4924.000
4873.000,4845.000,4852.000
4891.000,4912.000,4866.000
4913.000,4931.000,4891.000
4952.000,4958.000,4916.000
4991.000,5018.000,4881.000
5019.000,5030.000,4972.000
5079.000,5036.000,5041.000
5098.000,5106.000,5056.000
5072.000,5083.000,5103.000
5149.000,5093.000,5086.000
5215.000,5180.000,5115.000
5212.000,5244.000,5226.000
5303.000,5232.000,5287.000
5351.000,5227.000,5328.000
5382.000,5415.000,5353.000
5472.000,5417.000,5431.000
5536.000,5565.000,5552.000
5660.000,5612.000,5604.000
5750.000,5768.000,5743.000
5834.000,5890.000,5898.000
5997.000,5981.000,5961.000
6074.000,6132.000,6049.000
6311.000,6221.000,6249.000
6317.000,6345.000,6373.000
6536.000,6477.000,6553.000
6636.000,6600.000,6570.000
6673.000,6722.000,6631.000
6781.000,6763.000,6750.000
6697.000,6791.000,6805.000
6771.000,6752.000,6805.000
6771.000,6746.000,6706.000
6629.000,6611.000,6618.000
6501.000,6571.000,6478.000
6345.000,6376.000,6373.000
6152.000,6139.000,6197.000
6013.000,5987.000,6033.000
5842.000,5818.000,5770.000
5650.000,5636.000,5680.000
5424.000,5541.000,5454.000
5430.000,5370.000,5371.000
5298.000,5282.000,5175.000
5156.000,5208.000,5111.000
5070.000,5075.000,5059.000
5059.000,5008.000,4990.000
4986.000,4996.000,4905.000
4914.000,4886.000,4919.000
4921.000,4844.000,4869.000
4849.000,4860.000,4866.000
4845.000,4873.000,4814.000
4869.000,4775.000,4883.000
4870.000,4791.000,4853.000
4839.000,4893.000,4838.000
4888.000,4732.000,4815.000
4778.000,4781.000,4834.000
4891.000,4845.000,4871.000
4807.000,4831.000,4771.000
4794.000,4865.000,4863.000
4850.000,4845.000,4807.000
4898.000,4813.000,4815.000
4871.000,4887.000,4819.000
4828.000,4825.000,4843.000
4815.000,4763.000,4688.000
4714.000,4678.000,4701.000
4663.000,4629.000,4683.000
4606.000,4586.000,4648.000
4597.000,4616.000,4534.000
4554.000,4581.000,4524.000
4487.000,4504.000,4473.000
4513.000,4481.000,4381.000
4389.000,4347.000,4464.000
4334.000,4335.000,4336.000
4315.000,4274.000,4252.000
4217.000,4230.000,4236.000
4215.000,4170.000,4181.000
4160.000,4186.000,4163.000
4125.000,4138.000,4145.000
4151.000,4152.000,4086.000
4118.000,4089.000,4130.000
4069.000,4080.000,4041.000
4090.000,4025.000,4087.000
3963.000,3999.000,3974.000
4071.000,3949.000,3960.000
3840.000,3964.000,3940.000
3918.000,3924.000,3930.000
3933.000,3885.000,3900.000
3919.000,3964.000,3916.000
3879.000,3853.000,3952.000
3896.000,3865.000,3944.000
3844.000,3836.000,3882.000
3853.000,3893.000,3859.000
3935.000,3862.000,3838.000
3883.000,3840.000,3846.000
3851.000,3820.000,3876.000
3908.000,3867.000,3835.000
3899.000,3837.000,3860.000
3795.000,3820.000,3789.000
3809.000,3822.000,3800.000
3786.000,3775.000,3793.000
3782.000,3730.000,3773.000
3751.000,3799.000,3759.000
3767.000,3728.000,3803.000
3698.000,3753.000,3710.000
3727.000,3721.000,3767.000
3720.000,3713.000,3731.000
3693.000,3693.000,3675.000
3642.000,3674.000,3654.000
3648.000,3658.000,3644.000
3674.000,3653.000,3670.000
3639.000,3616.000,3683.000
3634.000,3634.000,3591.000
3616.000,3592.000,3605.000
3602.000,3577.000,3592.000
3605.000,3584.000,3557.000
3526.000,3577.000,3585.000
3543.000,3562.000,3489.000
3521.000,3517.000,3530.000
3498.000,3548.000,3505.000
3508.000,3484.000,3506.000
3485.000,3474.000,3470.000
3500.000,3453.000,3465.000
3478.000,3462.000,3431.000
3463.000,3449.000,3427.000
3437.000,3477.000,3450.000
3425.000,3412.000,3389.000
3410.000,3397.000,3402.000
3410.000,3407.000,3424.000
3413.000,3336.000,3412.000
3389.000,3407.000,3403.000
3351.000,3433.000,3373.000
3367.000,3338.000,3369.000
3391.000,3386.000,3372.000
3385.000,3393.000,3371.000
3398.000,3316.000,3378.000
3364.000,3376.000,3413.000
3396.000,3389.000,3317.000
3407.000,3353.000,3325.000
3344.000,3352.000,3337.000
3354.000,3307.000,3372.000
3350.000,3357.000,3362.000
3391.000,3310.000,3371.000
3349.000,3348.000,3315.000
3413.000,3369.000,3331.000
3326.000,3329.000,3320.000
3333.000,3329.000,3309.000
3335.000,3322.000,3328.000
3317.000,3373.000,3295.000
3315.000,3264.000,3278.000
3318.000,3265.000,3312.000
3335.000,3284.000,3276.000
3326.000,3301.000,3269.000
3294.000,3328.000,3295.000
3259.000,3175.000,3255.000
3204.000,3261.000,3238.000
3240.000,3209.000,3255.000
3195.000,3248.000,3210.000
3276.000,3242.000,3273.000
3204.000,3216.000,3275.000
3216.000,3194.000,3218.000
3141.000,3152.000,3183.000
3214.000,3173.000,3155.000
3163.000,3142.000,3165.000
3176.000,3171.000,3173.000
3146.000,3161.000,3156.000
3106.000,3132.000,3162.000
3162.000,3120.000,3166.000
3110.000,3147.000,3062.000
3115.000,3119.000,3113.000
3135.000,3064.000,3127.000
3137.000,3074.000,3055.000
3111.000,3098.000,3111.000
3141.000,3110.000,3130.000
3110.000,3173.000,3079.000
3074.000,3063.000,3112.000
3099.000,3076.000,3096.000
3085.000,3119.000,3088.000
3100.000,3087.000,3095.000
3121.000,3094.000,3112.000
3114.000,3105.000,3108.000
3107.000,3087.000,3132.000
3095.000,3120.000,3091.000
3076.000,3096.000,3106.000
3076.000,3067.000,3068.000
3055.000,3093.000,3139.000
3091.000,3117.000,3070.000
3121.000,3127.000,3059.000
3156.000,3096.000,3083.000
3071.000,3116.000,3109.000
3078.000,3079.000,3097.000
3109.000,3113.000,3105.000
3115.000,3101.000,3114.000
3122.000,3064.000,3055.000
3083.000,3033.000,3084.000
3054.000,3101.000,3074.000
3055.000,3066.000,3049.000
3028.000,3059.000,3074.000
3061.000,3011.000,3063.000
3067.000,3025.000,3057.000
3031.000,3028.000,3084.000
2987.000,3018.000,3003.000
3020.000,3042.000,3014.000
3017.000,2984.000,2981.000
3043.000,3017.000,3051.000
3005.000,3001.000,2983.000
2982.000,2934.000,2988.000
2979.000,2948.000,3006.000
2963.000,2922.000,2902.000
2941.000,2922.000,2986.000
2952.000,2942.000,2936.000
2891.000,2954.000,2947.000
2937.000,2907.000,2919.000
2930.000,2923.000,2940.000
2925.000,2903.000,2925.000
2914.000,2919.000,2857.000
2931.000,2908.000,2961.000
2948.000,2906.000,2951.000
2930.000,2898.000,2923.000
2900.000,2907.000,2927.000
2954.000,2916.000,2933.000
2908.000,2923.000,2927.000
2936.000,2954.000,2925.000
2919.000,2875.000,2934.000
2949.000,2908.000,2934.000
2927.000,2930.000,2898.000
2948.000,2906.000,2931.000
2915.000,2931.000,2971.000
2937.000,2967.000,2956.000
2920.000,2995.000,2914.000
2911.000,2921.000,2926.000
2911.000,2907.000,2918.000
2913.000,2922.000,2914.000
2849.000,2954.000,2881.000
2894.000,2918.000,2931.000
2896.000,2947.000,2874.000
2918.000,2887.000,2871.000
2933.000,2876.000,2890.000
2888.000,2883.000,2882.000
2866.000,2877.000,2890.000
2871.000,2864.000,2853.000
2880.000,2838.000,2880.000
2819.000,2805.000,2819.000
2805.000,2817.000,2801.000
2788.000,2804.000,2798.000
2782.000,2822.000,2817.000
2846.000,2804.000,2796.000
2814.000,2829.000,2865.000
2784.000,2796.000,2741.000
2811.000,2794.000,2777.000
2804.000,2794.000,2766.000
2806.000,2818.000,2800.000
2848.000,2817.000,2826.000
2850.000,2777.000,2809.000
2805.000,2840.000,2801.000
2799.000,2852.000,2793.000
2792.000,2798.000,2819.000
2819.000,2792.000,2762.000
2849.000,2846.000,2794.000
2822.000,2822.000,2837.000
2865.000,2814.000,2820.000
2791.000,2817.000,2817.000
2831.000,2815.000,2809.000
2869.000,2828.000,2818.000
2775.000,2820.000,2804.000
2798.000,2841.000,2797.000
2787.000,2777.000,2764.000
2811.000,2791.000,2798.000
2782.000,2824.000,2783.000
2769.000,2796.000,2756.000
2773.000,2791.000,2767.000
2843.000,2754.000,2725.000
2778.000,2727.000,2739.000
2735.000,2729.000,2708.000
2741.000,2748.000,2738.000
2692.000,2725.000,2764.000
2683.000,2725.000,2763.000
2730.000,2699.000,2736.000
2706.000,2735.000,2749.000
2706.000,2705.000,2741.000
2694.000,2695.000,2723.000
2725.000,2713.000,2710.000
2683.000,2701.000,2741.000
2719.000,2731.000,2672.000
2683.000,2678.000,2694.000
2726.000,2704.000,2671.000
2712.000,2733.000,2703.000
2711.000,2691.000,2697.000
2668.000,2721.000,2724.000
2719.000,2729.000,2700.000
2724.000,2701.000,2731.000
2711.000,2703.000,2740.000
2750.000,2678.000,2763.000
2732.000,2683.000,2725.000
2745.000,2730.000,2742.000
2705.000,2736.000,2723.000
2736.000,2739.000,2723.000
2707.000,2701.000,2704.000
2711.000,2718.000,2648.000
2695.000,2759.000,2707.000
2730.000,2708.000,2739.000
2719.000,2728.000,2774.000
2707.000,2696.000,2711.000
2742.000,2639.000,2701.000
2722.000,2706.000,2660.000
2700.000,2695.000,2668.000
2726.000,2696.000,2691.000
2685.000,2696.000,2635.000
2688.000,2712.000,2667.000
2674.000,2667.000,2662.000
2639.000,2652.000,2671.000
2638.000,2666.000,2666.000
2682.000,2607.000,2634.000
2646.000,2600.000,2651.000
2666.000,2635.000,2600.000
2617.000,2627.000,2611.000
2619.000,2611.000,2614.000
2636.000,2631.000,2584.000
2595.000,2579.000,2570.000
2554.000,2598.000,2575.000
2618.000,2579.000,2599.000
2574.000,2596.000,2577.000
2566.000,2612.000,2561.000
2574.000,2558.000,2572.000
2620.000,2551.000,2596.000
2609.000,2590.000,2569.000
2593.000,2611.000,2580.000
2562.000,2547.000,2564.000
2599.000,2578.000,2575.000
2590.000,2576.000,2551.000
2553.000,2593.000,2561.000
2592.000,2578.000,2585.000
2555.000,2569.000,2575.000
2590.000,2583.000,2544.000
2584.000,2584.000,2577.000
2584.000,2601.000,2604.000
2540.000,2598.000,2554.000
2581.000,2616.000,2603.000
2583.000,2595.000,2585.000
2559.000,2549.000,2566.000
2575.000,2556.000,2600.000
2571.000,2598.000,2576.000
2598.000,2612.000,2609.000
2598.000,2579.000,2565.000
2596.000,2547.000,2551.000
2539.000,2576.000,2568.000
2595.000,2558.000,2594.000
2565.000,2611.000,2544.000
2525.000,2576.000,2577.000
2550.000,2560.000,2566.000
2542.000,2545.000,2580.000
2567.000,2534.000,2570.000
2538.000,2540.000,2535.000
2555.000,2560.000,2493.000
2513.000,2519.000,2521.000
2473.000,2535.000,2490.000
2530.000,2492.000,2521.000
2493.000,2486.000,2509.000
2500.000,2493.000,2462.000
2474.000,2506.000,2452.000
2504.000,2453.000,2463.000
2442.000,2460.000,2506.000
2449.000,2488.000,2451.000
2471.000,2479.000,2483.000
2502.000,2430.000,2463.000
2487.000,2470.000,2485.000
2458.000,2435.000,2473.000
2474.000,2479.000,2484.000
2505.000,2485.000,2512.000
2507.000,2505.000,2480.000
2491.000,2491.000,2468.000
2450.000,2508.000,2478.000
2474.000,2489.000,2487.000
2525.000,2522.000,2520.000
2507.000,2495.000,2483.000
2493.000,2483.000,2526.000
2476.000,2480.000,2486.000
2477.000,2491.000,2496.000
2505.000,2490.000,2460.000
2510.000,2481.000,2485.000
2503.000,2509.000,2500.000
2501.000,2488.000,2472.000
2472.000,2482.000,2478.000
2468.000,2488.000,2475.000
2455.000,2444.000,2423.000
2493.000,2458.000,2420.000
2469.000,2468.000,2467.000
2431.000,2478.000,2441.000
2474.000,2428.000,2428.000
2451.000,2455.000,2445.000
2437.000,2433.000,2416.000
2410.000,2446.000,2423.000
2428.000,2436.000,2415.000
2408.000,2435.000,2377.000
2387.000,2403.000,2429.000
2437.000,2396.000,2416.000
2419.000,2406.000,2398.000
2389.000,2402.000,2409.000
2367.000,2410.000,2393.000
2442.000,2403.000,2392.000
2352.000,2392.000,2420.000
2440.000,2414.000,2374.000
2402.000,2402.000,2397.000
2448.000,2428.000,2395.000
2399.000,2418.000,2402.000
2434.000,2423.000,2429.000
2403.000,2385.000,2427.000
2381.000,2450.000,2415.000
2410.000,2442.000,2422.000
2452.000,2442.000,2419.000
2464.000,2461.000,2475.000
2429.000,2422.000,2395.000
2459.000,2412.000,2410.000
2423.000,2434.000,2399.000
2434.000,2439.000,2411.000
2437.000,2394.000,2400.000
2426.000,2414.000,2382.000
2402.000,2425.000,2437.000
2442.000,2416.000,2430.000
2395.000,2422.000,2424.000
2403.000,2404.000,2375.000
2383.000,2428.000,2364.000
2400.000,2340.000,2354.000
2416.000,2343.000,2380.000
2404.000,2372.000,2351.000
2395.000,2372.000,2372.000
2376.000,2344.000,2365.000
2372.000,2332.000,2345.000
2338.000,2375.000,2363.000
2329.000,2307.000,2303.000
2315.000,2313.000,2321.000
2317.000,2315.000,2382.000
2322.000,2350.000,2317.000
2287.000,2311.000,2327.000
2323.000,2327.000,2278.000
2323.000,2299.000,2325.000
2305.000,2311.000,2351.000
2309.000,2302.000,2338.000
2331.000,2326.000,2334.000
2310.000,2316.000,2323.000
2337.000,2331.000,2331.000
2330.000,2318.000,2323.000
2353.000,2317.000,2286.000
2319.000,2310.000,2301.000
2331.000,2311.000,2304.000
2354.000,2330.000,2320.000
2328.000,2335.000,2293.000
2330.000,2359.000,2327.000
2302.000,2344.000,2320.000
2317.000,2294.000,2337.000
2317.000,2334.000,2376.000
2312.000,2308.000,2303.000
2266.000,2327.000,2299.000
2329.000,2297.000,2319.000
2310.000,2311.000,2303.000
2289.000,2258.000,2281.000
2325.000,2313.000,2300.000
2301.000,2284.000,2263.000
2284.000,2283.000,2283.000
2272.000,2331.000,2290.000
2275.000,2270.000,2289.000
2281.000,2252.000,2260.000
2287.000,2250.000,2262.000
2285.000,2218.000,2256.000
2273.000,2245.000,2250.000
2233.000,2223.000,2237.000
2213.000,2223.000,2214.000
2226.000,2216.000,2244.000
2220.000,2246.000,2227.000
2237.000,2230.000,2202.000
2235.000,2191.000,2184.000
2210.000,2212.000,2181.000
2172.000,2221.000,2180.000
2203.000,2211.000,2228.000
2191.000,2173.000,2175.000
2186.000,2183.000,2202.000
2199.000,2167.000,2191.000
2204.000,2180.000,2187.000
2151.000,2176.000,2198.000
2170.000,2175.000,2150.000
2162.000,2180.000,2166.000
2167.000,2159.000,2139.000
2164.000,2172.000,2150.000
2196.000,2178.000,2147.000
2192.000,2187.000,2172.000
2187.000,2190.000,2174.000
2160.000,2167.000,2192.000
2163.000,2161.000,2150.000
2174.000,2193.000,2177.000
2228.000,2174.000,2156.000
2164.000,2188.000,2143.000
2184.000,2204.000,2178.000
2178.000,2162.000,2130.000
2194.000,2168.000,2191.000
2170.000,2181.000,2157.000
2162.000,2170.000,2176.000
2171.000,2139.000,2174.000
2134.000,2180.000,2136.000
2159.000,2151.000,2153.000
2156.000,2150.000,2135.000
2134.000,2165.000,2144.000
2160.000,2157.000,2132.000
2159.000,2091.000,2148.000
2163.000,2136.000,2130.000
2121.000,2111.000,2154.000
2151.000,2083.000,2151.000
2161.000,2114.000,2160.000
2103.000,2121.000,2116.000
2109.000,2090.000,2122.000
2116.000,2079.000,2121.000
2069.000,2093.000,2103.000
2116.000,2099.000,2092.000
2105.000,2075.000,2059.000
2092.000,2059.000,2043.000
2072.000,2104.000,2116.000
2038.000,2095.000,2041.000
2038.000,2075.000,2064.000
2046.000,2064.000,2072.000
2047.000,2043.000,2046.000
2064.000,2070.000,2019.000
2048.000,2041.000,2038.000
2026.000,2018.000,2067.000
2053.000,2044.000,2034.000
2022.000,2044.000,2016.000
2031.000,2032.000,2012.000
2030.000,2027.000,2013.000
2036.000,2026.000,2008.000
2029.000,2041.000,2037.000
2071.000,2027.000,2016.000
2048.000,1999.000,2027.000
2014.000,2029.000,2063.000
2027.000,2027.000,2051.000
2026.000,2024.000,2016.000
2033.000,2049.000,2051.000
2016.000,2029.000,2041.000
2052.000,2033.000,2017.000
2057.000,2045.000,2034.000
2074.000,2021.000,2039.000
2030.000,2044.000,2034.000
2021.000,2011.000,2013.000
2019.000,2010.000,2014.000
2017.000,2021.000,2020.000
2020.000,2010.000,2008.000
2022.000,2017.000,2016.000
1990.000,2011.000,2018.000
1994.000,2002.000,1993.000
1994.000,1990.000,2008.000
1992.000,1983.000,1993.000
1987.000,1972.000,1983.000
1981.000,1985.000,1991.000
1985.000,1983.000,1960.000
1997.000,1988.000,1980.000
1973.000,1969.000,1981.000
1941.000,1977.000,1967.000
1984.000,1948.000,1960.000
1992.000,1949.000,1954.000
1935.000,1964.000,1964.000
1967.000,1942.000,1926.000
1966.000,1913.000,1910.000
1900.000,1950.000,1926.000
1964.000,1945.000,1914.000
1915.000,1924.000,1924.000
1928.000,1935.000,1919.000
1925.000,1931.000,1930.000
1930.000,1911.000,1931.000
1882.000,1899.000,1877.000
1891.000,1907.000,1900.000
1897.000,1883.000,1888.000
1893.000,1890.000,1865.000
1896.000,1887.000,1884.000
1881.000,1890.000,1892.000
1886.000,1889.000,1899.000
1869.000,1892.000,1901.000
1874.000,1869.000,1878.000
1881.000,1909.000,1895.000
1872.000,1882.000,1878.000
1879.000,1872.000,1890.000
1897.000,1863.000,1887.000
1888.000,1878.000,1870.000
1854.000,1876.000,1868.000
1842.000,1881.000,1864.000
1855.000,1869.000,1861.000
1886.000,1867.000,1847.000
1866.000,1873.000,1863.000
1876.000,1894.000,1843.000
1839.000,1836.000,1864.000
1884.000,1869.000,1851.000
1857.000,1857.000,1859.000
1881.000,1861.000,1859.000
1870.000,1881.000,1852.000
1850.000,1847.000,1839.000
1876.000,1892.000,1831.000
1882.000,1831.000,1854.000
1835.000,1838.000,1847.000
1834.000,1844.000,1865.000
1849.000,1833.000,1819.000
1848.000,1817.000,1829.000
1826.000,1853.000,1845.000
1824.000,1850.000,1821.000
1834.000,1818.000,1820.000
1797.000,1806.000,1823.000
1809.000,1814.000,1797.000
1804.000,1823.000,1811.000
1818.000,1791.000,1801.000
1798.000,1795.000,1797.000
1804.000,1794.000,1802.000
1787.000,1774.000,1758.000
1780.000,1783.000,1780.000
1779.000,1775.000,1751.000
1782.000,1733.000,1748.000
1749.000,1754.000,1761.000
1759.000,1747.000,1735.000
1755.000,1764.000,1740.000
1741.000,1735.000,1749.000
1731.000,1739.000,1744.000
1729.000,1750.000,1754.000
1718.000,1736.000,1743.000
1712.000,1732.000,1735.000
1730.000,1728.000,1726.000
1727.000,1725.000,1710.000
1700.000,1727.000,1712.000
1691.000,1727.000,1714.000
1738.000,1720.000,1738.000
1729.000,1730.000,1715.000
1726.000,1719.000,1729.000
1744.000,1712.000,1730.000
1716.000,1720.000,1716.000
1718.000,1717.000,1716.000
1723.000,1712.000,1717.000
1715.000,1714.000,1720.000
1735.000,1727.000,1724.000
1724.000,1710.000,1725.000
1713.000,1700.000,1716.000
1717.000,1715.000,1704.000
1714.000,1719.000,1696.000
1702.000,1710.000,1704.000
1711.000,1702.000,1711.000
1674.000,1673.000,1696.000
1687.000,1680.000,1706.000
1688.000,1700.000,1697.000
1670.000,1691.000,1687.000
1695.000,1694.000,1683.000
1682.000,1679.000,1683.000
1668.000,1668.000,1669.000
1690.000,1674.000,1691.000
1659.000,1667.000,1665.000
1676.000,1653.000,1674.000
1651.000,1661.000,1663.000
1641.000,1680.000,1637.000
1654.000,1656.000,1646.000
1636.000,1656.000,1630.000
1635.000,1645.000,1624.000
1629.000,1636.000,1641.000
1620.000,1611.000,1606.000
1629.000,1608.000,1617.000
