Focus Mode,Read Mode,Exposure Time (sec),Number of Frames,Start Y,End Y,Date,Time,Position (microns)
Single Acquisition,Spectrum,20.000000,3,105,125,2/11/2021,5:32:06 PM,-3494.010000,0.000000,221.990000,

1265.000,1261.000,1271.000
1267.000,1266.000,1269.000
1262.000,1266.000,1266.000
1262.000,1272.000,1267.000
1268.000,1267.000,1270.000
1266.000,1268.000,1267.000
1261.000,1262.000,1271.000
1269.000,1271.000,1269.000
1266.000,1257.000,1269.000
1267.000,1271.000,1270.000
1262.000,1280.000,1268.000
1267.000,1267.000,1270.000
1274.000,1272.000,1268.000
1268.000,1270.000,1272.000
1272.000,1276.000,1274.000
1272.000,1275.000,1267.000
1270.000,1272.000,1275.000
1280.000,1279.000,1271.000
1276.000,1273.000,1272.000
1269.000,1278.000,1274.000
1278.000,1271.000,1281.000
1280.000,1271.000,1280.000
1281.000,1284.000,1281.000
1285.000,1284.000,1286.000
1285.000,1283.000,1290.000
1296.000,1282.000,1292.000
1296.000,1294.000,1292.000
1289.000,1302.000,1290.000
1287.000,1285.000,1303.000
1306.000,1300.000,1301.000
1300.000,1310.000,1302.000
1316.000,1307.000,1314.000
1300.000,1319.000,1304.000
1313.000,1307.000,1302.000
1313.000,1321.000,1319.000
1311.000,1325.000,1315.000
1318.000,1313.000,1324.000
1320.000,1328.000,1325.000
1329.000,1326.000,1323.000
1328.000,1328.000,1319.000
1335.000,1331.000,1331.000
1335.000,1334.000,1333.000
1338.000,1335.000,1339.000
1349.000,1345.000,1339.000
1358.000,1353.000,1343.000
1336.000,1337.000,1360.000
1357.000,1364.000,1354.000
1364.000,1356.000,1371.000
1365.000,1360.000,1369.000
1377.000,1371.000,1373.000
1377.000,1384.000,1376.000
1389.000,1391.000,1387.000
1398.000,1390.000,1392.000
1398.000,1394.000,1408.000
1424.000,1404.000,1406.000
1413.000,1413.000,1424.000
1420.000,1409.000,1418.000
1419.000,1425.000,1437.000
1438.000,1410.000,1438.000
1418.000,1428.000,1419.000
1451.000,1431.000,1417.000
1438.000,1437.000,1428.000
1435.000,1437.000,1424.000
1438.000,1429.000,1427.000
1450.000,1460.000,1467.000
1445.000,1457.000,1460.000
1459.000,1465.000,1457.000
1485.000,1475.000,1471.000
1490.000,1486.000,1495.000
1494.000,1495.000,1482.000
1498.000,1503.000,1518.000
1529.000,1510.000,1530.000
1552.000,1553.000,1559.000
1567.000,1549.000,1548.000
1587.000,1574.000,1588.000
1619.000,1597.000,1612.000
1626.000,1640.000,1619.000
1620.000,1619.000,1646.000
1641.000,1649.000,1641.000
1684.000,1639.000,1662.000
1684.000,1675.000,1682.000
1707.000,1674.000,1700.000
1701.000,1722.000,1699.000
1735.000,1704.000,1714.000
1725.000,1713.000,1706.000
1753.000,1731.000,1713.000
1739.000,1754.000,1750.000
1781.000,1747.000,1772.000
1803.000,1786.000,1784.000
1827.000,1798.000,1809.000
1798.000,1846.000,1819.000
1838.000,1831.000,1841.000
1867.000,1890.000,1872.000
1936.000,1896.000,1903.000
1938.000,1946.000,1949.000
1974.000,1969.000,2013.000
2080.000,2081.000,2063.000
2131.000,2135.000,2170.000
2227.000,2194.000,2224.000
2328.000,2360.000,2350.000
2485.000,2459.000,2470.000
2609.000,2576.000,2630.000
2745.000,2738.000,2764.000
2886.000,2890.000,2895.000
2945.000,2968.000,3014.000
3131.000,3061.000,3066.000
3182.000,3141.000,3196.000
3236.000,3190.000,3219.000
3224.000,3206.000,3212.000
3195.000,3218.000,3229.000
3230.000,3181.000,3203.000
3211.000,3159.000,3211.000
3175.000,3134.000,3131.000
3092.000,3109.000,3106.000
3114.000,3084.000,3109.000
3115.000,3126.000,3169.000
3222.000,3189.000,3241.000
3367.000,3312.000,3383.000
3566.000,3411.000,3483.000
3832.000,3706.000,3754.000
4278.000,4220.000,4301.000
5197.000,5087.000,5110.000
7149.000,6876.000,7036.000
12365.000,12119.000,12020.000
29182.000,27492.000,29064.000
61794.000,61828.000,61837.000
62244.000,62246.000,62237.000
62152.000,62157.000,62153.000
62095.000,62096.000,62100.000
62105.000,62099.000,62111.000
62095.000,62096.000,62093.000
62078.000,62078.000,62078.000
62077.000,62080.000,62077.000
62080.000,62079.000,62074.000
62074.000,62072.000,62067.000
62064.000,62069.000,62065.000
62071.000,62067.000,62068.000
62066.000,62067.000,62066.000
62062.000,62067.000,62066.000
62062.000,62068.000,62059.000
62064.000,62065.000,62066.000
62060.000,62065.000,62064.000
62060.000,62069.000,62062.000
62058.000,62057.000,62062.000
62063.000,62064.000,62063.000
62061.000,62065.000,62058.000
62060.000,62060.000,62059.000
62058.000,62058.000,62058.000
62061.000,62063.000,62062.000
62061.000,62060.000,62062.000
62061.000,62060.000,62058.000
62054.000,62062.000,62056.000
62059.000,62059.000,62060.000
62057.000,62060.000,62061.000
62058.000,62061.000,62058.000
62059.000,62063.000,62065.000
62057.000,62064.000,62056.000
62056.000,62064.000,62065.000
62058.000,62065.000,62059.000
62058.000,62061.000,62056.000
62059.000,62060.000,62061.000
62061.000,62059.000,62058.000
62060.000,62064.000,62056.000
62060.000,62058.000,62062.000
62059.000,62059.000,62055.000
62061.000,62062.000,62057.000
62052.000,62060.000,62059.000
62061.000,62058.000,62058.000
62058.000,62061.000,62063.000
62062.000,62063.000,62060.000
62056.000,62059.000,62061.000
62060.000,62066.000,62062.000
62062.000,62067.000,62063.000
62057.000,62068.000,62065.000
62066.000,62083.000,62062.000
62086.000,62088.000,62073.000
62078.000,46551.000,62087.000
1743.000,1636.000,51572.000
1556.000,1564.000,1642.000
1554.000,1519.000,1555.000
1534.000,1535.000,1543.000
1511.000,1528.000,1520.000
1485.000,1516.000,1497.000
1504.000,1488.000,1492.000
1487.000,1478.000,1498.000
1483.000,1470.000,1485.000
1470.000,1463.000,1491.000
1463.000,1464.000,1484.000
1464.000,1450.000,1459.000
1430.000,1446.000,1453.000
1445.000,1416.000,1435.000
1433.000,1427.000,1440.000
1433.000,1425.000,1441.000
1416.000,1409.000,1417.000
1424.000,1421.000,1433.000
1404.000,1400.000,1413.000
1408.000,1412.000,1414.000
1406.000,1416.000,1424.000
1411.000,1400.000,1404.000
1405.000,1403.000,1401.000
1401.000,1391.000,1398.000
1401.000,1395.000,1404.000
1401.000,1388.000,1409.000
1388.000,1378.000,1399.000
1377.000,1381.000,1387.000
1379.000,1384.000,1385.000
1388.000,1371.000,1371.000
1391.000,1381.000,1377.000
1379.000,1371.000,1365.000
1387.000,1385.000,1370.000
1367.000,1363.000,1360.000
1368.000,1366.000,1354.000
1365.000,1372.000,1367.000
1363.000,1359.000,1363.000
1355.000,1358.000,1357.000
1354.000,1362.000,1350.000
1340.000,1355.000,1352.000
1353.000,1346.000,1346.000
1359.000,1358.000,1343.000
1345.000,1340.000,1354.000
1342.000,1343.000,1356.000
1342.000,1347.000,1359.000
1344.000,1344.000,1339.000
1328.000,1341.000,1344.000
1335.000,1332.000,1346.000
1342.000,1336.000,1346.000
1334.000,1343.000,1326.000
1332.000,1335.000,1330.000
1328.000,1335.000,1327.000
1330.000,1335.000,1334.000
1326.000,1333.000,1335.000
1322.000,1329.000,1330.000
1332.000,1326.000,1331.000
1322.000,1310.000,1329.000
1320.000,1330.000,1319.000
1329.000,1327.000,1334.000
1317.000,1332.000,1321.000
1331.000,1322.000,1326.000
1321.000,1322.000,1319.000
1321.000,1318.000,1319.000
1319.000,1315.000,1314.000
1313.000,1307.000,1313.000
1307.000,1311.000,1318.000
1308.000,1316.000,1322.000
1310.000,1306.000,1312.000
1315.000,1307.000,1305.000
1303.000,1306.000,1319.000
1308.000,1306.000,1307.000
1296.000,1303.000,1313.000
1307.000,1310.000,1311.000
1306.000,1308.000,1299.000
1305.000,1299.000,1290.000
1308.000,1297.000,1301.000
1308.000,1305.000,1310.000
1311.000,1298.000,1313.000
1298.000,1300.000,1302.000
1294.000,1296.000,1300.000
1300.000,1292.000,1298.000
1292.000,1304.000,1295.000
1300.000,1304.000,1289.000
1307.000,1299.000,1299.000
1305.000,1300.000,1298.000
1299.000,1293.000,1292.000
1291.000,1289.000,1299.000
1299.000,1288.000,1287.000
1296.000,1298.000,1291.000
1294.000,1301.000,1297.000
1299.000,1286.000,1296.000
1295.000,1296.000,1297.000
1300.000,1282.000,1295.000
1297.000,1286.000,1290.000
1301.000,1282.000,1291.000
1288.000,1297.000,1292.000
1284.000,1285.000,1287.000
1279.000,1283.000,1289.000
1287.000,1292.000,1293.000
1285.000,1288.000,1295.000
1289.000,1304.000,1291.000
1285.000,1287.000,1295.000
1301.000,1295.000,1298.000
1291.000,1293.000,1290.000
1298.000,1296.000,1293.000
1298.000,1289.000,1293.000
1292.000,1289.000,1295.000
1293.000,1301.000,1289.000
1305.000,1292.000,1298.000
1304.000,1305.000,1303.000
1306.000,1294.000,1295.000
1309.000,1306.000,1304.000
1314.000,1320.000,1314.000
1319.000,1307.000,1307.000
1317.000,1306.000,1317.000
1318.000,1323.000,1335.000
1327.000,1322.000,1330.000
1333.000,1338.000,1345.000
1351.000,1349.000,1356.000
1352.000,1359.000,1356.000
1371.000,1356.000,1379.000
1384.000,1386.000,1383.000
1394.000,1384.000,1399.000
1413.000,1422.000,1414.000
1460.000,1444.000,1454.000
1476.000,1463.000,1460.000
1496.000,1498.000,1530.000
1538.000,1524.000,1555.000
1576.000,1586.000,1599.000
1651.000,1647.000,1637.000
1705.000,1688.000,1701.000
1795.000,1791.000,1805.000
1862.000,1858.000,1844.000
1988.000,1968.000,1994.000
2113.000,2093.000,2123.000
2264.000,2271.000,2226.000
2381.000,2439.000,2406.000
2573.000,2602.000,2605.000
2777.000,2759.000,2763.000
2961.000,3003.000,2980.000
3217.000,3216.000,3246.000
3456.000,3468.000,3425.000
3690.000,3693.000,3661.000
3937.000,3983.000,3927.000
4200.000,4211.000,4167.000
4433.000,4412.000,4400.000
4651.000,4684.000,4627.000
4796.000,4806.000,4788.000
4921.000,4988.000,4944.000
5110.000,5088.000,5105.000
5173.000,5273.000,5240.000
5307.000,5341.000,5304.000
5300.000,5338.000,5392.000
5397.000,5392.000,5439.000
5389.000,5463.000,5447.000
5372.000,5419.000,5442.000
5405.000,5411.000,5479.000
5439.000,5447.000,5415.000
5432.000,5519.000,5475.000
5398.000,5415.000,5469.000
5442.000,5428.000,5447.000
5500.000,5436.000,5415.000
5350.000,5471.000,5421.000
5382.000,5406.000,5354.000
5363.000,5426.000,5361.000
5447.000,5379.000,5384.000
5385.000,5365.000,5419.000
5385.000,5410.000,5390.000
5482.000,5424.000,5389.000
5438.000,5467.000,5312.000
5453.000,5399.000,5351.000
5442.000,5391.000,5446.000
5450.000,5394.000,5407.000
5488.000,5380.000,5395.000
5373.000,5436.000,5368.000
5384.000,5371.000,5408.000
5286.000,5370.000,5435.000
5366.000,5421.000,5432.000
5461.000,5381.000,5455.000
5384.000,5376.000,5387.000
5400.000,5411.000,5358.000
5427.000,5309.000,5412.000
5462.000,5374.000,5381.000
5391.000,5375.000,5437.000
5344.000,5416.000,5387.000
5421.000,5459.000,5443.000
5468.000,5389.000,5382.000
5420.000,5397.000,5373.000
5367.000,5374.000,5439.000
5389.000,5441.000,5461.000
5403.000,5487.000,5460.000
5388.000,5399.000,5424.000
5436.000,5420.000,5402.000
5381.000,5470.000,5448.000
5403.000,5392.000,5456.000
5485.000,5462.000,5461.000
5442.000,5484.000,5420.000
5513.000,5482.000,5451.000
5521.000,5501.000,5458.000
5517.000,5467.000,5466.000
5489.000,5494.000,5475.000
5522.000,5551.000,5492.000
5566.000,5551.000,5606.000
5606.000,5612.000,5544.000
5660.000,5526.000,5618.000
5680.000,5599.000,5532.000
5603.000,5539.000,5581.000
5574.000,5624.000,5591.000
5645.000,5611.000,5580.000
5648.000,5582.000,5638.000
5625.000,5672.000,5623.000
5628.000,5626.000,5646.000
5602.000,5672.000,5595.000
5631.000,5658.000,5652.000
5595.000,5609.000,5596.000
5670.000,5695.000,5572.000
5595.000,5710.000,5667.000
5620.000,5718.000,5685.000
5692.000,5701.000,5730.000
5674.000,5674.000,5762.000
5731.000,5652.000,5705.000
5757.000,5755.000,5711.000
5672.000,5685.000,5778.000
5711.000,5726.000,5697.000
5764.000,5751.000,5702.000
5730.000,5715.000,5735.000
5802.000,5725.000,5752.000
5703.000,5759.000,5692.000
5735.000,5810.000,5727.000
5838.000,5798.000,5712.000
5783.000,5806.000,5806.000
5839.000,5862.000,5784.000
5866.000,5764.000,5830.000
5827.000,5839.000,5860.000
5864.000,5936.000,5846.000
5794.000,5842.000,5855.000
5839.000,5892.000,5868.000
5908.000,5959.000,5904.000
5864.000,5876.000,5875.000
5907.000,5885.000,5934.000
5842.000,5885.000,5933.000
5905.000,5842.000,5962.000
5917.000,5891.000,5870.000
5907.000,5899.000,5871.000
5954.000,5877.000,5892.000
5908.000,5955.000,5934.000
5936.000,5964.000,5912.000
6039.000,5950.000,5925.000
5939.000,5931.000,5957.000
5958.000,5961.000,5974.000
6006.000,5985.000,6029.000
6020.000,6022.000,5974.000
5968.000,6015.000,5999.000
6020.000,5944.000,5940.000
6106.000,6027.000,6102.000
6084.000,5986.000,6000.000
6047.000,6085.000,6052.000
6044.000,6066.000,6039.000
6077.000,6117.000,6032.000
6065.000,6112.000,6103.000
6069.000,6169.000,6153.000
6078.000,6115.000,6121.000
6165.000,6114.000,6185.000
6190.000,6185.000,6197.000
6205.000,6244.000,6205.000
6223.000,6206.000,6224.000
6287.000,6262.000,6262.000
6396.000,6328.000,6344.000
6376.000,6359.000,6298.000
6351.000,6493.000,6421.000
6493.000,6437.000,6449.000
6578.000,6569.000,6576.000
6628.000,6637.000,6660.000
6685.000,6673.000,6664.000
6706.000,6750.000,6766.000
6765.000,6801.000,6836.000
6857.000,6908.000,6889.000
6979.000,6933.000,7000.000
7086.000,7055.000,6934.000
6997.000,7005.000,7030.000
7156.000,7102.000,7054.000
7078.000,7094.000,7038.000
7164.000,7026.000,7015.000
7014.000,6928.000,7097.000
6948.000,7018.000,7044.000
6975.000,7001.000,6928.000
7037.000,6884.000,6970.000
6961.000,6901.000,6956.000
6809.000,6832.000,6737.000
6695.000,6784.000,6801.000
6673.000,6637.000,6723.000
6687.000,6678.000,6617.000
6621.000,6558.000,6550.000
6551.000,6464.000,6528.000
6561.000,6506.000,6504.000
6418.000,6402.000,6438.000
6440.000,6403.000,6394.000
6313.000,6353.000,6324.000
6358.000,6371.000,6404.000
6264.000,6335.000,6339.000
6304.000,6252.000,6253.000
6225.000,6294.000,6240.000
6231.000,6246.000,6212.000
6167.000,6154.000,6241.000
6139.000,6227.000,6229.000
6108.000,6149.000,6129.000
6174.000,6157.000,6164.000
6162.000,6123.000,6091.000
6150.000,6143.000,6130.000
6102.000,6117.000,6104.000
6104.000,6148.000,6072.000
6104.000,6160.000,6072.000
6088.000,6050.000,6087.000
6202.000,6132.000,6034.000
6132.000,6057.000,6147.000
6058.000,6133.000,6112.000
6114.000,6156.000,6070.000
6148.000,6051.000,6115.000
6089.000,6102.000,6081.000
6189.000,6135.000,6124.000
6144.000,6154.000,6119.000
6123.000,6108.000,6122.000
6095.000,6048.000,6178.000
6165.000,6126.000,6126.000
6111.000,6085.000,6141.000
6139.000,6108.000,6132.000
6101.000,6102.000,6138.000
6046.000,6120.000,6091.000
6165.000,6137.000,6055.000
6090.000,6109.000,6132.000
6117.000,6051.000,6040.000
6062.000,6022.000,6163.000
6130.000,6023.000,6053.000
6036.000,5983.000,6045.000
6041.000,6013.000,6055.000
6018.000,6002.000,5984.000
5920.000,6026.000,5993.000
5908.000,5935.000,6019.000
5945.000,5929.000,5963.000
5863.000,5902.000,5928.000
5889.000,5888.000,5914.000
5832.000,5792.000,5808.000
5842.000,5758.000,5813.000
5760.000,5869.000,5785.000
5751.000,5791.000,5803.000
5746.000,5764.000,5758.000
5761.000,5755.000,5784.000
5778.000,5753.000,5735.000
5760.000,5745.000,5725.000
5714.000,5735.000,5701.000
5752.000,5675.000,5811.000
5703.000,5725.000,5754.000
5695.000,5754.000,5769.000
5744.000,5807.000,5753.000
5728.000,5765.000,5724.000
5700.000,5747.000,5650.000
5645.000,5689.000,5665.000
5682.000,5626.000,5671.000
5669.000,5667.000,5650.000
5727.000,5649.000,5719.000
5630.000,5686.000,5653.000
5685.000,5685.000,5651.000
5661.000,5665.000,5643.000
5642.000,5643.000,5652.000
5619.000,5667.000,5703.000
5597.000,5621.000,5579.000
5614.000,5593.000,5528.000
5518.000,5598.000,5615.000
5671.000,5634.000,5551.000
5632.000,5636.000,5544.000
5649.000,5587.000,5607.000
5683.000,5643.000,5667.000
5623.000,5596.000,5580.000
5636.000,5592.000,5699.000
5645.000,5592.000,5623.000
5631.000,5576.000,5678.000
5651.000,5611.000,5688.000
5734.000,5688.000,5601.000
5683.000,5717.000,5634.000
5720.000,5659.000,5715.000
5655.000,5682.000,5662.000
5666.000,5718.000,5660.000
5649.000,5644.000,5655.000
5652.000,5688.000,5698.000
5703.000,5678.000,5668.000
5724.000,5681.000,5698.000
5705.000,5682.000,5658.000
5691.000,5670.000,5647.000
5661.000,5657.000,5652.000
5676.000,5715.000,5663.000
5709.000,5669.000,5654.000
5747.000,5707.000,5712.000
5668.000,5739.000,5735.000
5693.000,5745.000,5747.000
5703.000,5654.000,5704.000
5759.000,5704.000,5692.000
5716.000,5743.000,5693.000
5679.000,5714.000,5688.000
5682.000,5691.000,5743.000
5646.000,5619.000,5614.000
5661.000,5704.000,5694.000
5677.000,5684.000,5676.000
5667.000,5667.000,5669.000
5696.000,5648.000,5654.000
5666.000,5616.000,5643.000
5640.000,5731.000,5668.000
5659.000,5723.000,5713.000
5790.000,5639.000,5675.000
5694.000,5690.000,5694.000
5794.000,5702.000,5677.000
5776.000,5700.000,5757.000
5773.000,5733.000,5686.000
5700.000,5725.000,5750.000
5764.000,5735.000,5772.000
5699.000,5727.000,5683.000
5668.000,5771.000,5713.000
5791.000,5749.000,5648.000
5792.000,5726.000,5759.000
5640.000,5655.000,5638.000
5711.000,5723.000,5661.000
5697.000,5684.000,5736.000
5633.000,5673.000,5683.000
5650.000,5642.000,5523.000
5612.000,5686.000,5669.000
5694.000,5634.000,5667.000
5540.000,5692.000,5595.000
5661.000,5684.000,5605.000
5641.000,5603.000,5575.000
5682.000,5574.000,5610.000
5606.000,5615.000,5616.000
5565.000,5669.000,5692.000
5578.000,5622.000,5573.000
5657.000,5592.000,5607.000
5601.000,5665.000,5564.000
5622.000,5545.000,5585.000
5570.000,5522.000,5526.000
5632.000,5563.000,5613.000
5605.000,5566.000,5615.000
5621.000,5521.000,5553.000
5541.000,5588.000,5626.000
5596.000,5522.000,5623.000
5555.000,5499.000,5600.000
5595.000,5572.000,5588.000
5586.000,5619.000,5608.000
5524.000,5533.000,5568.000
5546.000,5562.000,5570.000
5572.000,5549.000,5599.000
5582.000,5591.000,5549.000
5644.000,5604.000,5614.000
5603.000,5585.000,5674.000
5547.000,5574.000,5573.000
5583.000,5600.000,5550.000
5626.000,5605.000,5570.000
5545.000,5554.000,5552.000
5566.000,5518.000,5523.000
5523.000,5557.000,5488.000
5589.000,5552.000,5590.000
5550.000,5588.000,5595.000
5554.000,5565.000,5576.000
5566.000,5566.000,5575.000
5496.000,5512.000,5523.000
5567.000,5484.000,5593.000
5612.000,5619.000,5534.000
5575.000,5628.000,5551.000
5564.000,5575.000,5526.000
5597.000,5611.000,5606.000
5606.000,5617.000,5561.000
5585.000,5545.000,5599.000
5565.000,5594.000,5664.000
5640.000,5564.000,5568.000
5537.000,5587.000,5604.000
5568.000,5678.000,5667.000
5640.000,5565.000,5610.000
5622.000,5629.000,5612.000
5567.000,5620.000,5570.000
5543.000,5584.000,5541.000
5637.000,5586.000,5636.000
5601.000,5605.000,5505.000
5555.000,5534.000,5556.000
5596.000,5630.000,5567.000
5582.000,5596.000,5616.000
5615.000,5555.000,5610.000
5584.000,5653.000,5651.000
5680.000,5668.000,5647.000
5652.000,5621.000,5666.000
5645.000,5636.000,5609.000
5609.000,5638.000,5655.000
5587.000,5497.000,5672.000
5615.000,5585.000,5621.000
5572.000,5633.000,5641.000
5581.000,5635.000,5580.000
5573.000,5601.000,5582.000
5623.000,5584.000,5533.000
5517.000,5584.000,5610.000
5636.000,5615.000,5604.000
5582.000,5555.000,5610.000
5594.000,5569.000,5613.000
5570.000,5627.000,5583.000
5548.000,5547.000,5596.000
5628.000,5643.000,5534.000
5559.000,5614.000,5653.000
5511.000,5620.000,5568.000
5675.000,5560.000,5611.000
5597.000,5697.000,5663.000
5618.000,5599.000,5573.000
5512.000,5586.000,5632.000
5637.000,5596.000,5561.000
5615.000,5612.000,5546.000
5544.000,5566.000,5576.000
5667.000,5576.000,5609.000
5612.000,5672.000,5641.000
5508.000,5594.000,5609.000
5646.000,5558.000,5577.000
5627.000,5632.000,5579.000
5647.000,5563.000,5577.000
5613.000,5613.000,5629.000
5621.000,5639.000,5623.000
5558.000,5602.000,5573.000
5634.000,5586.000,5623.000
5601.000,5594.000,5595.000
5615.000,5603.000,5594.000
5513.000,5513.000,5522.000
5675.000,5621.000,5626.000
5639.000,5621.000,5597.000
5579.000,5601.000,5632.000
5576.000,5541.000,5575.000
5644.000,5643.000,5595.000
5567.000,5533.000,5579.000
5671.000,5567.000,5557.000
5607.000,5608.000,5572.000
5615.000,5603.000,5587.000
5623.000,5532.000,5589.000
5596.000,5630.000,5545.000
5626.000,5608.000,5670.000
5622.000,5601.000,5666.000
5611.000,5657.000,5671.000
5564.000,5651.000,5633.000
5567.000,5645.000,5640.000
5593.000,5623.000,5614.000
5642.000,5639.000,5571.000
5602.000,5680.000,5616.000
5648.000,5623.000,5623.000
5584.000,5674.000,5577.000
5552.000,5526.000,5564.000
5559.000,5581.000,5559.000
5559.000,5577.000,5637.000
5570.000,5511.000,5568.000
5599.000,5595.000,5565.000
5598.000,5616.000,5594.000
5498.000,5603.000,5587.000
5656.000,5612.000,5643.000
5632.000,5593.000,5666.000
5561.000,5603.000,5605.000
5645.000,5623.000,5627.000
5636.000,5611.000,5635.000
5542.000,5707.000,5597.000
5589.000,5611.000,5624.000
5591.000,5653.000,5630.000
5586.000,5628.000,5621.000
5574.000,5569.000,5559.000
5612.000,5599.000,5607.000
5609.000,5594.000,5581.000
5569.000,5531.000,5618.000
5625.000,5579.000,5602.000
5615.000,5603.000,5640.000
5605.000,5645.000,5652.000
5569.000,5617.000,5550.000
5622.000,5559.000,5560.000
5645.000,5569.000,5589.000
5608.000,5686.000,5639.000
5649.000,5620.000,5683.000
5619.000,5674.000,5611.000
5657.000,5631.000,5606.000
5663.000,5649.000,5628.000
5676.000,5635.000,5610.000
5623.000,5642.000,5687.000
5615.000,5678.000,5640.000
5677.000,5630.000,5660.000
5564.000,5704.000,5669.000
5680.000,5702.000,5652.000
5729.000,5651.000,5662.000
5690.000,5693.000,5698.000
5668.000,5642.000,5666.000
5695.000,5675.000,5626.000
5690.000,5675.000,5647.000
5731.000,5681.000,5651.000
5726.000,5656.000,5742.000
5707.000,5676.000,5649.000
5676.000,5686.000,5702.000
5684.000,5743.000,5702.000
5698.000,5728.000,5679.000
5711.000,5675.000,5691.000
5721.000,5717.000,5682.000
5708.000,5732.000,5781.000
5656.000,5791.000,5766.000
5718.000,5718.000,5666.000
5735.000,5733.000,5730.000
5689.000,5767.000,5687.000
5794.000,5750.000,5753.000
5728.000,5702.000,5728.000
5773.000,5795.000,5711.000
5781.000,5753.000,5739.000
5711.000,5734.000,5799.000
5803.000,5752.000,5723.000
5742.000,5713.000,5722.000
5793.000,5757.000,5734.000
5829.000,5748.000,5772.000
5780.000,5830.000,5823.000
5771.000,5779.000,5820.000
5856.000,5773.000,5830.000
5806.000,5837.000,5830.000
5796.000,5833.000,5856.000
5870.000,5845.000,5774.000
5841.000,5885.000,5877.000
5795.000,5879.000,5807.000
5861.000,5840.000,5854.000
5818.000,5839.000,5791.000
5844.000,5888.000,5891.000
5976.000,5912.000,5866.000
5926.000,5904.000,5904.000
5909.000,5858.000,5827.000
5947.000,5950.000,6052.000
5939.000,5940.000,5937.000
5910.000,5928.000,5920.000
6061.000,5970.000,5970.000
6038.000,6042.000,6037.000
6028.000,6073.000,6011.000
6129.000,6081.000,6059.000
6159.000,6178.000,6169.000
6206.000,6188.000,6259.000
6326.000,6299.000,6274.000
6306.000,6319.000,6326.000
6543.000,6383.000,6438.000
6614.000,6583.000,6567.000
6733.000,6740.000,6795.000
6877.000,6867.000,6987.000
7086.000,7011.000,6994.000
7336.000,7337.000,7377.000
7690.000,7615.000,7729.000
8181.000,8100.000,8148.000
8624.000,8754.000,8630.000
9294.000,9290.000,9273.000
9963.000,9975.000,10047.000
10831.000,10864.000,10771.000
11775.000,11778.000,11816.000
12700.000,12535.000,12687.000
13438.000,13445.000,13418.000
14037.000,14190.000,13976.000
14513.000,14623.000,14575.000
14822.000,14848.000,14835.000
14856.000,14767.000,14800.000
14530.000,14433.000,14522.000
13892.000,14052.000,14015.000
13179.000,13215.000,13204.000
12280.000,12250.000,12222.000
11484.000,11323.000,11270.000
10641.000,10548.000,10529.000
9693.000,9738.000,9623.000
9017.000,8936.000,8975.000
8422.000,8435.000,8453.000
7884.000,7858.000,7963.000
7503.000,7480.000,7479.000
7173.000,7143.000,7099.000
6885.000,6879.000,6928.000
6684.000,6721.000,6693.000
6516.000,6547.000,6579.000
6389.000,6352.000,6337.000
6291.000,6320.000,6274.000
6245.000,6182.000,6222.000
6045.000,6119.000,6179.000
6077.000,6068.000,6022.000
5963.000,6003.000,5991.000
5967.000,5930.000,5938.000
5948.000,5925.000,5857.000
5871.000,5834.000,5873.000
5828.000,5889.000,5813.000
5886.000,5812.000,5781.000
5804.000,5844.000,5843.000
5743.000,5787.000,5770.000
5692.000,5783.000,5706.000
5725.000,5690.000,5726.000
5731.000,5707.000,5753.000
5696.000,5707.000,5674.000
5626.000,5668.000,5739.000
5767.000,5691.000,5700.000
5617.000,5703.000,5666.000
5632.000,5626.000,5572.000
5637.000,5629.000,5673.000
5580.000,5701.000,5615.000
5618.000,5603.000,5645.000
5604.000,5547.000,5580.000
5578.000,5593.000,5616.000
5581.000,5637.000,5629.000
5617.000,5481.000,5634.000
5634.000,5532.000,5513.000
5520.000,5581.000,5624.000
5526.000,5571.000,5554.000
5586.000,5544.000,5512.000
5597.000,5535.000,5565.000
5583.000,5617.000,5541.000
5608.000,5530.000,5532.000
5532.000,5558.000,5559.000
5473.000,5473.000,5519.000
5484.000,5501.000,5612.000
5459.000,5492.000,5546.000
5506.000,5441.000,5465.000
5518.000,5606.000,5497.000
5447.000,5567.000,5470.000
5531.000,5538.000,5484.000
5508.000,5474.000,5551.000
5501.000,5481.000,5507.000
5430.000,5469.000,5471.000
5524.000,5508.000,5440.000
5503.000,5404.000,5453.000
5479.000,5489.000,5467.000
5395.000,5465.000,5406.000
5453.000,5475.000,5498.000
5472.000,5497.000,5479.000
5494.000,5435.000,5396.000
5431.000,5461.000,5451.000
5468.000,5461.000,5525.000
5477.000,5373.000,5375.000
5428.000,5408.000,5428.000
5456.000,5364.000,5435.000
5383.000,5437.000,5432.000
5443.000,5414.000,5453.000
5410.000,5387.000,5480.000
5412.000,5457.000,5389.000
5393.000,5426.000,5413.000
5426.000,5396.000,5429.000
5416.000,5404.000,5431.000
5365.000,5429.000,5401.000
5431.000,5414.000,5452.000
5417.000,5399.000,5408.000
5443.000,5338.000,5399.000
5408.000,5421.000,5417.000
5427.000,5390.000,5445.000
5366.000,5450.000,5460.000
5354.000,5456.000,5387.000
5332.000,5387.000,5371.000
5359.000,5385.000,5460.000
5400.000,5401.000,5457.000
5371.000,5399.000,5427.000
5355.000,5363.000,5331.000
5354.000,5405.000,5335.000
5334.000,5378.000,5374.000
5390.000,5433.000,5436.000
5392.000,5396.000,5364.000
5467.000,5484.000,5413.000
5514.000,5373.000,5408.000
5439.000,5395.000,5511.000
5429.000,5354.000,5430.000
5448.000,5367.000,5405.000
5478.000,5450.000,5433.000
5409.000,5417.000,5404.000
5472.000,5452.000,5520.000
5423.000,5474.000,5457.000
5511.000,5471.000,5481.000
5539.000,5477.000,5455.000
5505.000,5505.000,5461.000
5430.000,5469.000,5475.000
5416.000,5526.000,5539.000
5490.000,5498.000,5554.000
5537.000,5468.000,5498.000
5533.000,5499.000,5555.000
5487.000,5489.000,5445.000
5452.000,5462.000,5446.000
5483.000,5536.000,5520.000
5525.000,5527.000,5524.000
5506.000,5522.000,5562.000
5520.000,5447.000,5540.000
5508.000,5499.000,5555.000
5551.000,5532.000,5530.000
5563.000,5610.000,5582.000
5677.000,5635.000,5548.000
5657.000,5656.000,5574.000
5661.000,5697.000,5680.000
5746.000,5725.000,5734.000
5781.000,5757.000,5798.000
5749.000,5772.000,5809.000
5758.000,5833.000,5859.000
5880.000,5938.000,5885.000
5915.000,5941.000,5980.000
5993.000,5925.000,6066.000
6065.000,6099.000,6108.000
6105.000,6227.000,6115.000
6241.000,6171.000,6281.000
6323.000,6315.000,6303.000
6487.000,6534.000,6516.000
6607.000,6632.000,6667.000
6669.000,6725.000,6711.000
6885.000,6895.000,6908.000
7108.000,7117.000,7092.000
7260.000,7224.000,7208.000
7406.000,7418.000,7475.000
7579.000,7637.000,7607.000
7770.000,7717.000,7710.000
7807.000,7718.000,7879.000
7937.000,7890.000,7936.000
7924.000,7919.000,8032.000
7885.000,7921.000,7875.000
7877.000,7873.000,7831.000
7853.000,7813.000,7828.000
7679.000,7695.000,7629.000
7573.000,7687.000,7588.000
7445.000,7475.000,7407.000
7291.000,7207.000,7295.000
7183.000,7123.000,7125.000
6928.000,6986.000,6998.000
6820.000,6800.000,6758.000
6789.000,6653.000,6718.000
6696.000,6539.000,6652.000
6439.000,6470.000,6559.000
6472.000,6461.000,6453.000
6380.000,6446.000,6429.000
6430.000,6296.000,6423.000
6399.000,6369.000,6315.000
6369.000,6264.000,6264.000
6378.000,6314.000,6399.000
6300.000,6255.000,6337.000
6348.000,6390.000,6371.000
6386.000,6392.000,6388.000
6375.000,6374.000,6441.000
6502.000,6417.000,6411.000
6489.000,6471.000,6596.000
6568.000,6596.000,6536.000
6595.000,6662.000,6633.000
6655.000,6628.000,6717.000
6728.000,6740.000,6771.000
6797.000,6839.000,6926.000
6853.000,6903.000,6920.000
7038.000,7079.000,7036.000
7103.000,7089.000,7055.000
7167.000,7229.000,7225.000
7248.000,7304.000,7257.000
7189.000,7331.000,7320.000
7307.000,7314.000,7309.000
7469.000,7371.000,7364.000
7400.000,7364.000,7465.000
7370.000,7315.000,7388.000
7219.000,7188.000,7286.000
7225.000,7300.000,7200.000
7080.000,7043.000,7098.000
6942.000,7026.000,6926.000
6772.000,6853.000,6812.000
6579.000,6587.000,6693.000
6480.000,6465.000,6497.000
6439.000,6405.000,6418.000
6264.000,6219.000,6285.000
6072.000,6182.000,6165.000
6006.000,6023.000,6104.000
5963.000,6018.000,5907.000
5884.000,5836.000,5843.000
5771.000,5853.000,5763.000
5707.000,5749.000,5742.000
5665.000,5717.000,5689.000
5628.000,5642.000,5669.000
5571.000,5664.000,5552.000
5541.000,5543.000,5627.000
5538.000,5569.000,5612.000
5474.000,5498.000,5474.000
5423.000,5507.000,5474.000
5470.000,5516.000,5440.000
5429.000,5477.000,5416.000
5459.000,5467.000,5471.000
5470.000,5507.000,5464.000
5433.000,5417.000,5356.000
5423.000,5401.000,5434.000
5366.000,5387.000,5484.000
5435.000,5424.000,5404.000
5407.000,5425.000,5445.000
5394.000,5396.000,5449.000
5331.000,5377.000,5299.000
5294.000,5316.000,5346.000
5259.000,5357.000,5363.000
5253.000,5281.000,5228.000
5189.000,5284.000,5247.000
5276.000,5262.000,5192.000
5181.000,5245.000,5167.000
5137.000,5182.000,5239.000
5100.000,5102.000,5118.000
5093.000,5101.000,5113.000
5064.000,5029.000,5017.000
4990.000,5001.000,5018.000
5040.000,5033.000,5091.000
5025.000,5023.000,4950.000
5000.000,4932.000,4978.000
4939.000,5037.000,4922.000
4949.000,4866.000,4924.000
4910.000,4883.000,4890.000
4874.000,4817.000,4816.000
4851.000,4866.000,4858.000
4857.000,4853.000,4895.000
4774.000,4845.000,4802.000
4790.000,4765.000,4781.000
4750.000,4713.000,4772.000
4747.000,4804.000,4740.000
4770.000,4734.000,4806.000
4798.000,4803.000,4776.000
4738.000,4770.000,4794.000
4782.000,4715.000,4789.000
4743.000,4764.000,4725.000
4742.000,4720.000,4693.000
4755.000,4658.000,4693.000
4738.000,4718.000,4699.000
4685.000,4706.000,4737.000
4740.000,4721.000,4733.000
4707.000,4682.000,4708.000
4609.000,4661.000,4689.000
4681.000,4590.000,4736.000
4611.000,4602.000,4722.000
4643.000,4663.000,4629.000
4646.000,4622.000,4583.000
4583.000,4542.000,4597.000
4524.000,4613.000,4526.000
4562.000,4571.000,4571.000
4566.000,4584.000,4563.000
4532.000,4579.000,4616.000
4526.000,4562.000,4584.000
4555.000,4547.000,4548.000
4499.000,4506.000,4560.000
4491.000,4514.000,4523.000
4557.000,4516.000,4524.000
4485.000,4543.000,4539.000
4564.000,4548.000,4574.000
4566.000,4600.000,4534.000
4512.000,4555.000,4609.000
4510.000,4546.000,4548.000
4542.000,4497.000,4622.000
4523.000,4523.000,4555.000
4506.000,4598.000,4586.000
4527.000,4600.000,4531.000
4613.000,4513.000,4501.000
4469.000,4539.000,4487.000
4450.000,4520.000,4440.000
4453.000,4563.000,4513.000
4504.000,4451.000,4475.000
4456.000,4494.000,4437.000
4436.000,4458.000,4515.000
4440.000,4519.000,4446.000
4489.000,4468.000,4551.000
4485.000,4520.000,4519.000
4490.000,4523.000,4484.000
4565.000,4448.000,4494.000
4472.000,4546.000,4455.000
4520.000,4573.000,4533.000
4544.000,4538.000,4507.000
4541.000,4497.000,4508.000
4491.000,4469.000,4530.000
4471.000,4480.000,4446.000
4464.000,4479.000,4441.000
4518.000,4509.000,4545.000
4496.000,4509.000,4484.000
4488.000,4508.000,4510.000
4470.000,4495.000,4534.000
4452.000,4467.000,4489.000
4475.000,4480.000,4486.000
4531.000,4445.000,4538.000
4511.000,4483.000,4557.000
4478.000,4439.000,4483.000
4542.000,4552.000,4541.000
4504.000,4497.000,4542.000
4563.000,4527.000,4511.000
4559.000,4574.000,4566.000
4514.000,4497.000,4560.000
4578.000,4591.000,4608.000
4568.000,4537.000,4643.000
4554.000,4529.000,4595.000
4545.000,4574.000,4573.000
4533.000,4477.000,4526.000
4564.000,4545.000,4489.000
4522.000,4496.000,4584.000
4541.000,4561.000,4588.000
4480.000,4570.000,4547.000
4606.000,4520.000,4561.000
4632.000,4580.000,4592.000
4626.000,4578.000,4595.000
4596.000,4649.000,4625.000
4604.000,4595.000,4574.000
4607.000,4641.000,4637.000
4627.000,4633.000,4622.000
4631.000,4636.000,4661.000
4648.000,4660.000,4706.000
4638.000,4653.000,4617.000
4622.000,4630.000,4663.000
4593.000,4667.000,4613.000
4602.000,4616.000,4599.000
4588.000,4607.000,4645.000
4616.000,4587.000,4695.000
4643.000,4683.000,4679.000
4635.000,4710.000,4570.000
4708.000,4640.000,4742.000
4698.000,4657.000,4723.000
4697.000,4730.000,4704.000
4752.000,4713.000,4687.000
4735.000,4743.000,4750.000
4756.000,4747.000,4774.000
4816.000,4778.000,4762.000
4766.000,4829.000,4759.000
4726.000,4728.000,4774.000
4762.000,4768.000,4808.000
4735.000,4822.000,4775.000
4801.000,4770.000,4854.000
4831.000,4839.000,4831.000
4832.000,4849.000,4845.000
4884.000,4903.000,4874.000
4956.000,4914.000,4895.000
4942.000,4961.000,5067.000
5046.000,5037.000,5022.000
5130.000,5187.000,5171.000
5139.000,5208.000,5225.000
5224.000,5252.000,5334.000
5367.000,5345.000,5311.000
5403.000,5359.000,5492.000
5410.000,5511.000,5466.000
5515.000,5364.000,5391.000
5374.000,5417.000,5485.000
5511.000,5448.000,5453.000
5410.000,5446.000,5464.000
5449.000,5428.000,5424.000
5515.000,5365.000,5356.000
5385.000,5353.000,5388.000
5324.000,5358.000,5295.000
5347.000,5292.000,5356.000
5259.000,5256.000,5269.000
5222.000,5199.000,5270.000
5186.000,5186.000,5177.000
5093.000,5213.000,5111.000
5072.000,5100.000,5087.000
5045.000,5090.000,5051.000
4993.000,5028.000,5009.000
5014.000,4999.000,4963.000
4961.000,4956.000,4962.000
4889.000,4940.000,4916.000
4889.000,4880.000,4819.000
4828.000,4842.000,4861.000
4777.000,4717.000,4819.000
4867.000,4840.000,4814.000
4755.000,4714.000,4792.000
4726.000,4774.000,4744.000
4732.000,4663.000,4711.000
4711.000,4681.000,4670.000
4731.000,4719.000,4735.000
4638.000,4676.000,4679.000
4719.000,4720.000,4648.000
4722.000,4729.000,4690.000
4683.000,4679.000,4705.000
4739.000,4749.000,4716.000
4768.000,4711.000,4688.000
4707.000,4694.000,4736.000
4659.000,4720.000,4688.000
4722.000,4722.000,4771.000
4665.000,4678.000,4736.000
4718.000,4736.000,4732.000
4740.000,4777.000,4709.000
4692.000,4698.000,4713.000
4674.000,4755.000,4725.000
4711.000,4662.000,4666.000
4654.000,4696.000,4686.000
4610.000,4656.000,4707.000
4671.000,4667.000,4631.000
4654.000,4593.000,4605.000
4643.000,4618.000,4659.000
4625.000,4603.000,4601.000
4602.000,4580.000,4643.000
4603.000,4602.000,4611.000
4599.000,4652.000,4565.000
4572.000,4580.000,4561.000
4580.000,4534.000,4614.000
4515.000,4563.000,4527.000
4555.000,4578.000,4592.000
4605.000,4605.000,4596.000
4639.000,4572.000,4550.000
4646.000,4591.000,4565.000
4674.000,4615.000,4603.000
4629.000,4615.000,4648.000
4617.000,4643.000,4530.000
4604.000,4609.000,4637.000
4634.000,4582.000,4670.000
4680.000,4627.000,4648.000
4607.000,4572.000,4694.000
4572.000,4597.000,4609.000
4624.000,4534.000,4570.000
4539.000,4545.000,4632.000
4509.000,4572.000,4602.000
4514.000,4558.000,4530.000
4540.000,4557.000,4493.000
4516.000,4552.000,4572.000
4536.000,4521.000,4529.000
4530.000,4481.000,4538.000
4534.000,4537.000,4538.000
4502.000,4503.000,4538.000
4507.000,4526.000,4503.000
4478.000,4463.000,4527.000
4493.000,4539.000,4507.000
4467.000,4489.000,4555.000
4478.000,4517.000,4525.000
4466.000,4517.000,4508.000
4518.000,4518.000,4537.000
4560.000,4518.000,4592.000
4515.000,4519.000,4554.000
4548.000,4508.000,4539.000
4491.000,4569.000,4544.000
4505.000,4523.000,4581.000
4508.000,4514.000,4537.000
4527.000,4611.000,4599.000
4539.000,4471.000,4515.000
4536.000,4557.000,4565.000
4597.000,4499.000,4515.000
4596.000,4493.000,4555.000
4527.000,4455.000,4533.000
4544.000,4523.000,4530.000
4579.000,4518.000,4554.000
4587.000,4562.000,4500.000
4591.000,4520.000,4601.000
4555.000,4503.000,4606.000
4592.000,4614.000,4534.000
4595.000,4578.000,4547.000
4601.000,4579.000,4617.000
4623.000,4636.000,4549.000
4604.000,4635.000,4608.000
4566.000,4567.000,4588.000
4575.000,4564.000,4658.000
4558.000,4546.000,4632.000
4587.000,4570.000,4487.000
4620.000,4620.000,4631.000
4628.000,4551.000,4635.000
4589.000,4567.000,4589.000
4610.000,4574.000,4639.000
4508.000,4567.000,4629.000
4541.000,4577.000,4643.000
4564.000,4579.000,4589.000
4551.000,4555.000,4558.000
4577.000,4542.000,4515.000
4548.000,4611.000,4552.000
4568.000,4548.000,4551.000
4644.000,4600.000,4586.000
4627.000,4644.000,4593.000
4656.000,4617.000,4655.000
4560.000,4648.000,4600.000
4603.000,4639.000,4559.000
4617.000,4663.000,4675.000
4598.000,4662.000,4686.000
4551.000,4597.000,4617.000
4605.000,4649.000,4621.000
4637.000,4628.000,4646.000
4632.000,4630.000,4650.000
4657.000,4725.000,4655.000
4688.000,4667.000,4660.000
4630.000,4565.000,4644.000
4621.000,4647.000,4587.000
4695.000,4597.000,4690.000
4624.000,4624.000,4662.000
4654.000,4624.000,4618.000
4649.000,4651.000,4684.000
4678.000,4743.000,4729.000
4696.000,4618.000,4655.000
4652.000,4650.000,4669.000
4673.000,4683.000,4647.000
4694.000,4695.000,4612.000
4676.000,4660.000,4720.000
4681.000,4695.000,4651.000
4605.000,4662.000,4643.000
4542.000,4668.000,4646.000
4706.000,4710.000,4707.000
4692.000,4694.000,4724.000
4681.000,4717.000,4775.000
4732.000,4738.000,4719.000
4659.000,4758.000,4698.000
4743.000,4774.000,4757.000
4808.000,4721.000,4715.000
4802.000,4759.000,4754.000
4799.000,4846.000,4763.000
4817.000,4800.000,4782.000
4871.000,4869.000,4807.000
4837.000,4932.000,4840.000
4953.000,4884.000,4928.000
4927.000,4870.000,4901.000
4980.000,4957.000,4975.000
4999.000,4997.000,4972.000
5008.000,5042.000,5063.000
5020.000,5090.000,5017.000
5137.000,5137.000,5099.000
5083.000,5079.000,5074.000
5193.000,5156.000,5188.000
5270.000,5215.000,5276.000
5395.000,5333.000,5380.000
5340.000,5444.000,5446.000
5520.000,5518.000,5482.000
5646.000,5638.000,5639.000
5703.000,5681.000,5709.000
5825.000,5814.000,5770.000
5954.000,5954.000,5952.000
6144.000,6114.000,6060.000
6254.000,6239.000,6234.000
6358.000,6317.000,6293.000
6447.000,6415.000,6452.000
6475.000,6427.000,6501.000
6541.000,6563.000,6504.000
6533.000,6559.000,6625.000
6578.000,6505.000,6643.000
6497.000,6566.000,6525.000
6339.000,6413.000,6303.000
6271.000,6301.000,6224.000
6096.000,6083.000,6071.000
5878.000,5827.000,5901.000
5722.000,5690.000,5744.000
5537.000,5524.000,5584.000
5390.000,5505.000,5380.000
5289.000,5388.000,5339.000
5174.000,5260.000,5118.000
5034.000,5094.000,5082.000
4998.000,4993.000,4960.000
4888.000,4913.000,4880.000
4870.000,4767.000,4834.000
4765.000,4804.000,4800.000
4727.000,4816.000,4820.000
4739.000,4738.000,4696.000
4716.000,4767.000,4741.000
4706.000,4718.000,4699.000
4686.000,4697.000,4713.000
4685.000,4739.000,4735.000
4717.000,4733.000,4681.000
4613.000,4744.000,4686.000
4736.000,4681.000,4694.000
4720.000,4674.000,4739.000
4763.000,4741.000,4708.000
4734.000,4770.000,4780.000
4830.000,4685.000,4786.000
4708.000,4673.000,4664.000
4690.000,4727.000,4683.000
4674.000,4708.000,4695.000
4669.000,4607.000,4651.000
4572.000,4589.000,4563.000
4542.000,4510.000,4558.000
4491.000,4483.000,4554.000
4449.000,4491.000,4505.000
4428.000,4455.000,4399.000
4404.000,4338.000,4374.000
4382.000,4351.000,4332.000
4261.000,4234.000,4271.000
4226.000,4241.000,4228.000
4124.000,4216.000,4209.000
4079.000,4113.000,4128.000
4149.000,4152.000,4090.000
4045.000,4120.000,4102.000
4004.000,4044.000,4077.000
4076.000,3994.000,4022.000
4038.000,4027.000,4073.000
4005.000,3930.000,3900.000
3943.000,3949.000,3904.000
3963.000,3975.000,3899.000
3927.000,3887.000,3904.000
3868.000,3859.000,3834.000
3859.000,3816.000,3878.000
3858.000,3842.000,3810.000
3866.000,3841.000,3767.000
3856.000,3875.000,3851.000
3811.000,3837.000,3832.000
3842.000,3772.000,3843.000
3787.000,3803.000,3816.000
3784.000,3797.000,3803.000
3737.000,3772.000,3784.000
3802.000,3823.000,3839.000
3788.000,3790.000,3780.000
3756.000,3831.000,3807.000
3773.000,3731.000,3712.000
3720.000,3744.000,3813.000
3711.000,3754.000,3731.000
3706.000,3748.000,3664.000
3721.000,3712.000,3699.000
3623.000,3717.000,3722.000
3721.000,3621.000,3708.000
3663.000,3703.000,3709.000
3647.000,3681.000,3645.000
3679.000,3644.000,3625.000
3634.000,3637.000,3625.000
3616.000,3659.000,3590.000
3531.000,3599.000,3585.000
3522.000,3627.000,3571.000
3602.000,3530.000,3556.000
3554.000,3507.000,3567.000
3527.000,3563.000,3548.000
3512.000,3525.000,3539.000
3524.000,3481.000,3514.000
3489.000,3439.000,3471.000
3485.000,3467.000,3545.000
3477.000,3496.000,3486.000
3400.000,3495.000,3485.000
3441.000,3432.000,3431.000
3407.000,3460.000,3470.000
3422.000,3430.000,3365.000
3390.000,3446.000,3440.000
3375.000,3368.000,3374.000
3380.000,3346.000,3370.000
3324.000,3387.000,3395.000
3392.000,3390.000,3410.000
3307.000,3349.000,3345.000
3337.000,3339.000,3316.000
3332.000,3346.000,3343.000
3386.000,3382.000,3322.000
3283.000,3357.000,3377.000
3311.000,3326.000,3308.000
3337.000,3322.000,3294.000
3300.000,3326.000,3330.000
3302.000,3302.000,3317.000
3329.000,3313.000,3346.000
3303.000,3322.000,3360.000
3279.000,3310.000,3292.000
3330.000,3318.000,3300.000
3308.000,3287.000,3339.000
3297.000,3320.000,3310.000
3299.000,3274.000,3329.000
3353.000,3322.000,3248.000
3278.000,3301.000,3299.000
3270.000,3271.000,3281.000
3271.000,3277.000,3297.000
3299.000,3271.000,3253.000
3240.000,3255.000,3247.000
3248.000,3267.000,3228.000
3200.000,3257.000,3222.000
3227.000,3229.000,3184.000
3238.000,3225.000,3186.000
3177.000,3198.000,3183.000
3207.000,3210.000,3168.000
3213.000,3219.000,3168.000
3190.000,3176.000,3165.000
3168.000,3208.000,3183.000
3086.000,3185.000,3174.000
3178.000,3204.000,3175.000
3135.000,3131.000,3182.000
3132.000,3109.000,3153.000
3109.000,3094.000,3130.000
3145.000,3111.000,3098.000
3098.000,3089.000,3092.000
3057.000,3103.000,3075.000
3104.000,3047.000,3092.000
3102.000,3130.000,3091.000
3095.000,3018.000,3093.000
3061.000,3083.000,3117.000
3086.000,3040.000,3106.000
3102.000,3094.000,3144.000
3042.000,3085.000,3060.000
3049.000,3017.000,3079.000
3058.000,3039.000,3094.000
3052.000,3089.000,3071.000
3120.000,3052.000,3072.000
3092.000,3073.000,3021.000
3026.000,3097.000,3024.000
3067.000,3077.000,3077.000
3084.000,3052.000,3059.000
3052.000,3080.000,3070.000
3053.000,3030.000,3024.000
3077.000,3069.000,3065.000
3051.000,3071.000,3094.000
3027.000,3057.000,3046.000
3053.000,3085.000,3088.000
3010.000,3050.000,3046.000
3060.000,3040.000,3092.000
3026.000,3067.000,3012.000
3018.000,3046.000,3044.000
3072.000,3017.000,3066.000
3053.000,3020.000,3043.000
3060.000,3000.000,3021.000
2996.000,3031.000,3022.000
3000.000,3000.000,2988.000
2991.000,2988.000,3001.000
3017.000,2999.000,3045.000
3009.000,2980.000,3007.000
2996.000,2959.000,3001.000
2945.000,2941.000,2987.000
2987.000,2950.000,2961.000
2979.000,2993.000,2995.000
2970.000,2941.000,2993.000
2909.000,2968.000,2926.000
2950.000,2928.000,2953.000
2888.000,2950.000,2922.000
2957.000,2912.000,2936.000
2908.000,2950.000,2879.000
2918.000,2929.000,2910.000
2910.000,2905.000,2899.000
2913.000,2895.000,2900.000
2885.000,2881.000,2895.000
2909.000,2894.000,2931.000
2924.000,2861.000,2934.000
2872.000,2883.000,2915.000
2899.000,2896.000,2869.000
2875.000,2869.000,2891.000
2865.000,2894.000,2910.000
2860.000,2892.000,2906.000
2898.000,2912.000,2901.000
2898.000,2852.000,2881.000
2899.000,2892.000,2885.000
2870.000,2873.000,2862.000
2938.000,2881.000,2901.000
2891.000,2882.000,2912.000
2869.000,2885.000,2906.000
2892.000,2891.000,2909.000
2904.000,2894.000,2882.000
2878.000,2871.000,2893.000
2879.000,2874.000,2859.000
2910.000,2903.000,2861.000
2906.000,2875.000,2871.000
2911.000,2837.000,2894.000
2867.000,2830.000,2859.000
2819.000,2866.000,2865.000
2860.000,2830.000,2845.000
2863.000,2818.000,2838.000
2827.000,2857.000,2801.000
2861.000,2837.000,2807.000
2793.000,2762.000,2809.000
2762.000,2784.000,2818.000
2776.000,2777.000,2797.000
2751.000,2808.000,2805.000
2753.000,2776.000,2741.000
2781.000,2779.000,2740.000
2763.000,2771.000,2787.000
2772.000,2749.000,2742.000
2795.000,2743.000,2749.000
2805.000,2768.000,2754.000
2783.000,2790.000,2747.000
2773.000,2744.000,2761.000
2777.000,2771.000,2774.000
2793.000,2792.000,2745.000
2790.000,2741.000,2803.000
2794.000,2786.000,2755.000
2822.000,2769.000,2773.000
2779.000,2780.000,2768.000
2785.000,2804.000,2788.000
2797.000,2782.000,2792.000
2773.000,2782.000,2809.000
2774.000,2775.000,2787.000
2796.000,2802.000,2784.000
2734.000,2778.000,2752.000
2753.000,2738.000,2768.000
2761.000,2756.000,2789.000
2778.000,2732.000,2779.000
2770.000,2721.000,2737.000
2735.000,2757.000,2751.000
2694.000,2738.000,2745.000
2737.000,2698.000,2697.000
2730.000,2734.000,2735.000
2699.000,2690.000,2708.000
2694.000,2702.000,2713.000
2758.000,2658.000,2699.000
2710.000,2709.000,2683.000
2680.000,2684.000,2710.000
2706.000,2672.000,2649.000
2665.000,2708.000,2629.000
2665.000,2667.000,2657.000
2679.000,2660.000,2664.000
2669.000,2649.000,2687.000
2638.000,2699.000,2667.000
2648.000,2722.000,2716.000
2689.000,2683.000,2696.000
2699.000,2682.000,2665.000
2690.000,2648.000,2743.000
2708.000,2711.000,2691.000
2675.000,2704.000,2714.000
2688.000,2659.000,2657.000
2702.000,2702.000,2704.000
2647.000,2721.000,2715.000
2753.000,2712.000,2708.000
2701.000,2715.000,2685.000
2725.000,2668.000,2732.000
2676.000,2678.000,2709.000
2681.000,2672.000,2690.000
2683.000,2656.000,2692.000
2673.000,2670.000,2692.000
2627.000,2672.000,2713.000
2683.000,2673.000,2681.000
2679.000,2635.000,2646.000
2657.000,2663.000,2665.000
2643.000,2605.000,2624.000
2664.000,2688.000,2687.000
2669.000,2621.000,2658.000
2617.000,2616.000,2616.000
2638.000,2622.000,2679.000
2659.000,2621.000,2609.000
2628.000,2628.000,2647.000
2613.000,2650.000,2609.000
2574.000,2608.000,2595.000
2619.000,2610.000,2594.000
2571.000,2614.000,2585.000
2599.000,2582.000,2578.000
2568.000,2615.000,2542.000
2585.000,2592.000,2561.000
2592.000,2587.000,2570.000
2580.000,2564.000,2571.000
2586.000,2552.000,2567.000
2546.000,2581.000,2567.000
2546.000,2531.000,2551.000
2549.000,2516.000,2546.000
2555.000,2557.000,2523.000
2516.000,2536.000,2548.000
2586.000,2545.000,2546.000
2570.000,2575.000,2539.000
2585.000,2565.000,2554.000
2581.000,2538.000,2568.000
2552.000,2550.000,2571.000
2537.000,2586.000,2588.000
2526.000,2562.000,2537.000
2560.000,2580.000,2563.000
2578.000,2589.000,2554.000
2539.000,2530.000,2561.000
2605.000,2585.000,2583.000
2597.000,2574.000,2588.000
2571.000,2542.000,2558.000
2519.000,2584.000,2536.000
2566.000,2587.000,2558.000
2545.000,2581.000,2557.000
2580.000,2566.000,2578.000
2569.000,2578.000,2561.000
2548.000,2572.000,2525.000
2570.000,2533.000,2546.000
2553.000,2527.000,2557.000
2542.000,2560.000,2555.000
2540.000,2552.000,2537.000
2546.000,2519.000,2521.000
2511.000,2523.000,2510.000
2508.000,2522.000,2507.000
2528.000,2517.000,2528.000
2492.000,2514.000,2502.000
2478.000,2490.000,2466.000
2460.000,2461.000,2506.000
2486.000,2455.000,2510.000
2472.000,2479.000,2461.000
2458.000,2474.000,2438.000
2478.000,2454.000,2456.000
2441.000,2466.000,2457.000
2453.000,2441.000,2422.000
2426.000,2433.000,2458.000
2474.000,2429.000,2462.000
2430.000,2448.000,2432.000
2430.000,2455.000,2471.000
2455.000,2466.000,2462.000
2500.000,2455.000,2459.000
2493.000,2426.000,2478.000
2493.000,2462.000,2476.000
2496.000,2475.000,2469.000
2455.000,2459.000,2465.000
2452.000,2504.000,2457.000
2482.000,2456.000,2476.000
2468.000,2452.000,2448.000
2452.000,2457.000,2464.000
2470.000,2508.000,2467.000
2482.000,2503.000,2477.000
2500.000,2507.000,2469.000
2489.000,2455.000,2481.000
2510.000,2444.000,2458.000
2439.000,2478.000,2436.000
2439.000,2473.000,2425.000
2486.000,2439.000,2509.000
2406.000,2421.000,2460.000
2440.000,2437.000,2462.000
2444.000,2440.000,2422.000
2452.000,2434.000,2443.000
2402.000,2410.000,2387.000
2372.000,2406.000,2397.000
2405.000,2404.000,2387.000
2428.000,2406.000,2390.000
2360.000,2378.000,2406.000
2372.000,2347.000,2371.000
2393.000,2379.000,2401.000
2401.000,2396.000,2368.000
2382.000,2391.000,2398.000
2384.000,2369.000,2402.000
2382.000,2362.000,2396.000
2390.000,2374.000,2404.000
2400.000,2380.000,2404.000
2389.000,2383.000,2401.000
2391.000,2371.000,2400.000
2395.000,2433.000,2396.000
2413.000,2429.000,2409.000
2407.000,2397.000,2389.000
2399.000,2404.000,2388.000
2420.000,2392.000,2405.000
2415.000,2439.000,2411.000
2395.000,2406.000,2428.000
2380.000,2408.000,2396.000
2397.000,2383.000,2403.000
2401.000,2391.000,2385.000
2399.000,2378.000,2377.000
2375.000,2379.000,2346.000
2399.000,2389.000,2380.000
2403.000,2359.000,2392.000
2367.000,2397.000,2400.000
2380.000,2392.000,2398.000
2385.000,2400.000,2376.000
2351.000,2404.000,2403.000
2362.000,2363.000,2395.000
2360.000,2327.000,2391.000
2374.000,2354.000,2353.000
2363.000,2321.000,2358.000
2331.000,2346.000,2400.000
2344.000,2306.000,2325.000
2329.000,2331.000,2328.000
2288.000,2337.000,2316.000
2302.000,2306.000,2328.000
2290.000,2313.000,2341.000
2304.000,2334.000,2322.000
2299.000,2315.000,2289.000
2320.000,2295.000,2316.000
2279.000,2334.000,2286.000
2302.000,2288.000,2304.000
2293.000,2333.000,2288.000
2319.000,2362.000,2259.000
2298.000,2335.000,2282.000
2317.000,2300.000,2308.000
2314.000,2314.000,2300.000
2324.000,2314.000,2303.000
2337.000,2304.000,2298.000
2302.000,2282.000,2295.000
2325.000,2303.000,2288.000
2300.000,2308.000,2299.000
2332.000,2335.000,2281.000
2286.000,2310.000,2308.000
2317.000,2294.000,2331.000
2313.000,2316.000,2317.000
2293.000,2296.000,2325.000
2321.000,2306.000,2292.000
2298.000,2287.000,2318.000
2286.000,2271.000,2288.000
2292.000,2270.000,2265.000
2301.000,2293.000,2305.000
2296.000,2260.000,2280.000
2284.000,2290.000,2266.000
2286.000,2262.000,2265.000
2268.000,2295.000,2263.000
2237.000,2220.000,2253.000
2254.000,2203.000,2265.000
2260.000,2237.000,2242.000
2230.000,2239.000,2230.000
2237.000,2209.000,2197.000
2224.000,2181.000,2245.000
2227.000,2218.000,2206.000
2193.000,2213.000,2198.000
2167.000,2197.000,2216.000
2169.000,2216.000,2216.000
2211.000,2219.000,2165.000
2165.000,2156.000,2168.000
2178.000,2166.000,2194.000
2180.000,2195.000,2168.000
2186.000,2167.000,2178.000
2189.000,2181.000,2206.000
2147.000,2195.000,2179.000
2173.000,2159.000,2144.000
2128.000,2127.000,2166.000
2115.000,2145.000,2139.000
2175.000,2167.000,2139.000
2190.000,2176.000,2126.000
2142.000,2186.000,2162.000
2177.000,2171.000,2150.000
2188.000,2173.000,2143.000
2144.000,2132.000,2131.000
2146.000,2160.000,2164.000
2184.000,2182.000,2164.000
2132.000,2162.000,2185.000
2161.000,2195.000,2161.000
2147.000,2174.000,2146.000
2163.000,2155.000,2159.000
2133.000,2137.000,2177.000
2152.000,2192.000,2133.000
2129.000,2148.000,2149.000
2150.000,2154.000,2125.000
2148.000,2138.000,2155.000
2145.000,2147.000,2124.000
2128.000,2155.000,2109.000
2155.000,2131.000,2143.000
2143.000,2114.000,2080.000
2127.000,2135.000,2149.000
2114.000,2123.000,2123.000
2131.000,2125.000,2103.000
2132.000,2118.000,2103.000
2115.000,2138.000,2099.000
2096.000,2133.000,2102.000
2086.000,2087.000,2093.000
2105.000,2101.000,2119.000
2100.000,2073.000,2068.000
2042.000,2072.000,2092.000
2059.000,2065.000,2056.000
2025.000,2075.000,2099.000
2042.000,2051.000,2057.000
2036.000,2058.000,2023.000
2039.000,2031.000,2016.000
2041.000,2034.000,2019.000
2028.000,2044.000,2058.000
2040.000,2018.000,2036.000
2038.000,2038.000,2034.000
2033.000,2045.000,2020.000
2018.000,2062.000,2008.000
2035.000,2019.000,2029.000
2017.000,2024.000,2016.000
2029.000,1991.000,2011.000
2014.000,2010.000,2017.000
2052.000,2018.000,2001.000
2045.000,2017.000,1956.000
2009.000,2013.000,2001.000
2012.000,2018.000,1991.000
2022.000,2020.000,2017.000
2028.000,2016.000,2030.000
2015.000,1999.000,2019.000
2031.000,2048.000,2025.000
2042.000,2032.000,2030.000
2059.000,2022.000,2042.000
2015.000,2044.000,2022.000
1993.000,2006.000,2035.000
2023.000,1984.000,2005.000
2025.000,2008.000,2014.000
2009.000,1988.000,2028.000
1993.000,2007.000,2000.000
1994.000,2026.000,1989.000
2017.000,1965.000,1994.000
1984.000,1985.000,1999.000
1982.000,1990.000,1993.000
2010.000,1965.000,1954.000
1973.000,1987.000,1951.000
1980.000,1984.000,2020.000
1993.000,1979.000,2017.000
1985.000,1973.000,1980.000
1962.000,1967.000,1958.000
1949.000,1975.000,1962.000
1939.000,1970.000,1958.000
1939.000,1912.000,1949.000
1924.000,1938.000,1955.000
1932.000,1952.000,1945.000
1907.000,1943.000,1920.000
1910.000,1918.000,1942.000
1923.000,1916.000,1952.000
1915.000,1922.000,1909.000
1904.000,1925.000,1886.000
1900.000,1883.000,1907.000
1882.000,1904.000,1910.000
1912.000,1880.000,1882.000
1868.000,1898.000,1874.000
1864.000,1841.000,1879.000
1887.000,1872.000,1906.000
1876.000,1899.000,1883.000
1874.000,1866.000,1874.000
1863.000,1865.000,1858.000
1865.000,1895.000,1851.000
1847.000,1870.000,1894.000
1873.000,1882.000,1850.000
1870.000,1884.000,1855.000
1897.000,1869.000,1856.000
1853.000,1869.000,1875.000
1870.000,1877.000,1873.000
1860.000,1883.000,1872.000
1867.000,1861.000,1867.000
1859.000,1861.000,1862.000
1866.000,1864.000,1868.000
1880.000,1841.000,1875.000
1848.000,1873.000,1885.000
1839.000,1846.000,1867.000
1858.000,1872.000,1885.000
1857.000,1861.000,1840.000
1841.000,1879.000,1843.000
1868.000,1867.000,1842.000
1860.000,1849.000,1828.000
1828.000,1852.000,1858.000
1823.000,1835.000,1852.000
1820.000,1863.000,1841.000
1846.000,1838.000,1858.000
1820.000,1838.000,1844.000
1863.000,1841.000,1826.000
1820.000,1831.000,1813.000
1809.000,1811.000,1782.000
1796.000,1826.000,1820.000
1810.000,1822.000,1831.000
1800.000,1810.000,1822.000
1795.000,1798.000,1796.000
1760.000,1775.000,1784.000
1795.000,1788.000,1770.000
1788.000,1799.000,1802.000
1776.000,1786.000,1751.000
1763.000,1763.000,1763.000
1741.000,1778.000,1766.000
1756.000,1739.000,1767.000
1749.000,1748.000,1740.000
1747.000,1754.000,1762.000
1764.000,1736.000,1727.000
1736.000,1738.000,1732.000
1750.000,1755.000,1747.000
1735.000,1733.000,1719.000
1722.000,1722.000,1740.000
1722.000,1736.000,1723.000
1741.000,1741.000,1737.000
1735.000,1719.000,1732.000
1728.000,1715.000,1711.000
1723.000,1727.000,1727.000
1728.000,1709.000,1728.000
1694.000,1708.000,1723.000
1725.000,1724.000,1714.000
1710.000,1716.000,1725.000
1715.000,1717.000,1700.000
1698.000,1701.000,1726.000
1732.000,1705.000,1714.000
1740.000,1710.000,1697.000
1704.000,1687.000,1722.000
1727.000,1719.000,1693.000
1719.000,1695.000,1722.000
1671.000,1714.000,1744.000
1704.000,1700.000,1715.000
1685.000,1699.000,1698.000
1683.000,1713.000,1686.000
1692.000,1702.000,1698.000
1699.000,1675.000,1676.000
1688.000,1686.000,1685.000
1667.000,1675.000,1671.000
1667.000,1674.000,1677.000
1672.000,1690.000,1677.000
1659.000,1659.000,1652.000
1634.000,1673.000,1670.000
1654.000,1665.000,1662.000
1659.000,1659.000,1666.000
1652.000,1648.000,1646.000
1662.000,1633.000,1635.000
1628.000,1638.000,1635.000
1643.000,1632.000,1642.000
1635.000,1623.000,1639.000
1626.000,1638.000,1609.000
1632.000,1634.000,1618.000
1600.000,1587.000,1604.000
