Focus Mode,Read Mode,Exposure Time (sec),Number of Frames,Start Y,End Y,Date,Time,Position (microns)
Single Acquisition,Spectrum,20.000000,3,105,125,2/10/2021,1:58:39 PM,0.000000,0.000000,200.010000,

1254.000,1249.000,1251.000
1255.000,1250.000,1248.000
1255.000,1252.000,1247.000
1249.000,1251.000,1255.000
1253.000,1252.000,1248.000
1258.000,1250.000,1259.000
1252.000,1252.000,1254.000
1259.000,1260.000,1255.000
1255.000,1251.000,1247.000
1249.000,1251.000,1256.000
1257.000,1252.000,1256.000
1255.000,1255.000,1264.000
1257.000,1257.000,1258.000
1259.000,1253.000,1259.000
1256.000,1260.000,1258.000
1264.000,1264.000,1260.000
1258.000,1262.000,1262.000
1259.000,1260.000,1263.000
1262.000,1257.000,1258.000
1265.000,1268.000,1267.000
1266.000,1268.000,1262.000
1269.000,1271.000,1275.000
1270.000,1272.000,1271.000
1271.000,1270.000,1266.000
1271.000,1265.000,1268.000
1278.000,1268.000,1272.000
1279.000,1274.000,1279.000
1279.000,1281.000,1263.000
1279.000,1275.000,1281.000
1291.000,1279.000,1276.000
1286.000,1279.000,1279.000
1301.000,1286.000,1281.000
1280.000,1288.000,1281.000
1282.000,1292.000,1284.000
1298.000,1295.000,1293.000
1296.000,1297.000,1296.000
1295.000,1298.000,1302.000
1301.000,1301.000,1310.000
1307.000,1302.000,1306.000
1305.000,1292.000,1302.000
1303.000,1306.000,1300.000
1311.000,1306.000,1313.000
1311.000,1312.000,1308.000
1316.000,1322.000,1316.000
1324.000,1313.000,1317.000
1325.000,1322.000,1318.000
1326.000,1326.000,1325.000
1339.000,1327.000,1335.000
1328.000,1328.000,1334.000
1342.000,1343.000,1348.000
1329.000,1341.000,1339.000
1338.000,1333.000,1344.000
1344.000,1357.000,1352.000
1364.000,1364.000,1358.000
1368.000,1364.000,1364.000
1378.000,1368.000,1355.000
1373.000,1371.000,1373.000
1384.000,1380.000,1401.000
1391.000,1372.000,1384.000
1387.000,1394.000,1394.000
1394.000,1396.000,1389.000
1413.000,1407.000,1391.000
1406.000,1410.000,1409.000
1402.000,1400.000,1386.000
1422.000,1405.000,1399.000
1407.000,1419.000,1403.000
1422.000,1416.000,1403.000
1424.000,1431.000,1421.000
1429.000,1433.000,1430.000
1441.000,1445.000,1444.000
1441.000,1419.000,1429.000
1462.000,1454.000,1454.000
1465.000,1463.000,1444.000
1467.000,1469.000,1466.000
1492.000,1495.000,1504.000
1515.000,1514.000,1497.000
1518.000,1519.000,1510.000
1531.000,1535.000,1533.000
1531.000,1550.000,1552.000
1532.000,1557.000,1555.000
1571.000,1560.000,1566.000
1555.000,1578.000,1574.000
1578.000,1581.000,1583.000
1593.000,1597.000,1607.000
1619.000,1607.000,1609.000
1632.000,1639.000,1609.000
1622.000,1621.000,1646.000
1643.000,1643.000,1646.000
1651.000,1654.000,1660.000
1664.000,1652.000,1648.000
1710.000,1689.000,1674.000
1696.000,1700.000,1712.000
1729.000,1695.000,1719.000
1748.000,1751.000,1755.000
1758.000,1764.000,1756.000
1801.000,1775.000,1772.000
1844.000,1837.000,1832.000
1859.000,1871.000,1887.000
1934.000,1928.000,1951.000
2030.000,1990.000,2005.000
2072.000,2081.000,2058.000
2116.000,2134.000,2121.000
2202.000,2236.000,2227.000
2322.000,2275.000,2294.000
2376.000,2347.000,2371.000
2392.000,2402.000,2381.000
2443.000,2414.000,2451.000
2450.000,2477.000,2451.000
2489.000,2488.000,2458.000
2513.000,2536.000,2483.000
2523.000,2549.000,2520.000
2583.000,2558.000,2539.000
2594.000,2538.000,2588.000
2600.000,2591.000,2582.000
2649.000,2620.000,2674.000
2692.000,2707.000,2689.000
2797.000,2831.000,2863.000
2950.000,2916.000,2963.000
3142.000,3113.000,3125.000
3365.000,3397.000,3453.000
3909.000,3931.000,3930.000
4729.000,4661.000,4803.000
6516.000,6561.000,6685.000
11570.000,11749.000,12266.000
27221.000,27670.000,29217.000
61491.000,61547.000,61498.000
62068.000,62074.000,62064.000
61998.000,61992.000,61999.000
61936.000,61944.000,61939.000
61942.000,61948.000,61946.000
61937.000,61941.000,61940.000
61914.000,61920.000,61920.000
61916.000,61925.000,61920.000
61919.000,61924.000,61924.000
61909.000,61920.000,61913.000
61902.000,61914.000,61912.000
61909.000,61916.000,61911.000
61908.000,61914.000,61908.000
61909.000,61910.000,61911.000
61906.000,61911.000,61912.000
61905.000,61909.000,61912.000
61911.000,61912.000,61907.000
61904.000,61908.000,61908.000
61904.000,61909.000,61909.000
61903.000,61909.000,61911.000
61900.000,61908.000,61904.000
61908.000,61909.000,61911.000
61901.000,61910.000,61904.000
61903.000,61902.000,61911.000
61902.000,61904.000,61905.000
61900.000,61912.000,61910.000
61904.000,61907.000,61904.000
61903.000,61904.000,61908.000
61903.000,61908.000,61901.000
61904.000,61909.000,61909.000
61905.000,61910.000,61908.000
61905.000,61909.000,61904.000
61903.000,61910.000,61906.000
61896.000,61913.000,61903.000
61905.000,61904.000,61904.000
61903.000,61907.000,61902.000
61898.000,61906.000,61903.000
61903.000,61910.000,61907.000
61898.000,61911.000,61905.000
61902.000,61908.000,61904.000
61898.000,61904.000,61903.000
61907.000,61910.000,61905.000
61903.000,61908.000,61906.000
61905.000,61904.000,61905.000
61906.000,61910.000,61908.000
61902.000,61907.000,61906.000
61904.000,61908.000,61914.000
61907.000,61905.000,61910.000
61907.000,61915.000,61916.000
61912.000,61927.000,61927.000
61945.000,61948.000,61947.000
65511.000,43576.000,28154.000
1684.000,1635.000,1610.000
1574.000,1543.000,1548.000
1538.000,1527.000,1512.000
1518.000,1544.000,1517.000
1526.000,1527.000,1515.000
1528.000,1509.000,1484.000
1484.000,1490.000,1478.000
1507.000,1483.000,1479.000
1472.000,1490.000,1480.000
1478.000,1465.000,1464.000
1462.000,1462.000,1449.000
1456.000,1440.000,1420.000
1436.000,1447.000,1444.000
1439.000,1437.000,1431.000
1438.000,1431.000,1426.000
1420.000,1424.000,1421.000
1423.000,1415.000,1420.000
1414.000,1423.000,1412.000
1410.000,1421.000,1437.000
1402.000,1403.000,1410.000
1411.000,1403.000,1402.000
1395.000,1385.000,1397.000
1398.000,1404.000,1389.000
1394.000,1399.000,1402.000
1383.000,1396.000,1397.000
1396.000,1398.000,1387.000
1387.000,1381.000,1378.000
1376.000,1382.000,1374.000
1368.000,1376.000,1372.000
1376.000,1383.000,1380.000
1374.000,1369.000,1371.000
1381.000,1352.000,1371.000
1352.000,1351.000,1366.000
1365.000,1375.000,1361.000
1367.000,1359.000,1372.000
1360.000,1359.000,1353.000
1350.000,1355.000,1359.000
1353.000,1347.000,1363.000
1353.000,1342.000,1353.000
1342.000,1348.000,1336.000
1337.000,1339.000,1354.000
1354.000,1344.000,1351.000
1349.000,1347.000,1342.000
1346.000,1341.000,1338.000
1339.000,1341.000,1337.000
1340.000,1340.000,1341.000
1331.000,1352.000,1336.000
1322.000,1339.000,1338.000
1324.000,1326.000,1338.000
1330.000,1328.000,1331.000
1330.000,1338.000,1316.000
1332.000,1324.000,1336.000
1321.000,1322.000,1336.000
1328.000,1331.000,1324.000
1322.000,1330.000,1329.000
1321.000,1324.000,1324.000
1314.000,1314.000,1327.000
1313.000,1315.000,1319.000
1316.000,1328.000,1324.000
1319.000,1319.000,1324.000
1319.000,1311.000,1313.000
1315.000,1313.000,1315.000
1315.000,1314.000,1313.000
1325.000,1306.000,1308.000
1315.000,1311.000,1309.000
1318.000,1310.000,1317.000
1314.000,1307.000,1313.000
1312.000,1313.000,1312.000
1303.000,1316.000,1304.000
1306.000,1304.000,1298.000
1307.000,1294.000,1307.000
1300.000,1302.000,1299.000
1306.000,1303.000,1308.000
1301.000,1307.000,1296.000
1294.000,1309.000,1280.000
1297.000,1303.000,1299.000
1310.000,1299.000,1290.000
1302.000,1294.000,1292.000
1284.000,1291.000,1298.000
1296.000,1308.000,1293.000
1296.000,1299.000,1295.000
1293.000,1300.000,1290.000
1307.000,1305.000,1284.000
1298.000,1293.000,1294.000
1302.000,1306.000,1293.000
1299.000,1292.000,1285.000
1293.000,1295.000,1294.000
1294.000,1282.000,1294.000
1286.000,1287.000,1290.000
1291.000,1288.000,1294.000
1293.000,1289.000,1287.000
1299.000,1288.000,1286.000
1283.000,1284.000,1295.000
1287.000,1279.000,1286.000
1287.000,1285.000,1280.000
1285.000,1274.000,1300.000
1298.000,1281.000,1285.000
1280.000,1288.000,1280.000
1281.000,1286.000,1288.000
1281.000,1280.000,1287.000
1282.000,1285.000,1282.000
1293.000,1297.000,1280.000
1293.000,1281.000,1284.000
1289.000,1292.000,1288.000
1284.000,1283.000,1283.000
1283.000,1284.000,1283.000
1283.000,1289.000,1291.000
1275.000,1279.000,1293.000
1291.000,1289.000,1291.000
1296.000,1281.000,1290.000
1279.000,1282.000,1282.000
1282.000,1282.000,1287.000
1283.000,1288.000,1296.000
1290.000,1286.000,1280.000
1281.000,1290.000,1286.000
1296.000,1283.000,1286.000
1294.000,1303.000,1290.000
1301.000,1296.000,1306.000
1293.000,1302.000,1300.000
1301.000,1309.000,1306.000
1306.000,1301.000,1304.000
1312.000,1303.000,1296.000
1318.000,1318.000,1313.000
1328.000,1320.000,1324.000
1333.000,1343.000,1332.000
1338.000,1345.000,1338.000
1357.000,1346.000,1355.000
1378.000,1364.000,1367.000
1388.000,1384.000,1378.000
1397.000,1389.000,1403.000
1420.000,1421.000,1415.000
1446.000,1451.000,1446.000
1461.000,1488.000,1466.000
1508.000,1527.000,1517.000
1568.000,1566.000,1548.000
1602.000,1620.000,1613.000
1664.000,1672.000,1677.000
1718.000,1738.000,1736.000
1774.000,1788.000,1806.000
1868.000,1868.000,1872.000
1948.000,1954.000,1944.000
2022.000,2040.000,2044.000
2084.000,2109.000,2108.000
2197.000,2202.000,2197.000
2282.000,2295.000,2291.000
2426.000,2363.000,2384.000
2456.000,2427.000,2428.000
2519.000,2494.000,2528.000
2587.000,2567.000,2580.000
2605.000,2641.000,2639.000
2652.000,2682.000,2648.000
2675.000,2710.000,2677.000
2664.000,2701.000,2709.000
2710.000,2715.000,2717.000
2738.000,2699.000,2693.000
2752.000,2747.000,2711.000
2723.000,2683.000,2739.000
2723.000,2734.000,2705.000
2733.000,2743.000,2717.000
2695.000,2747.000,2710.000
2713.000,2710.000,2691.000
2649.000,2727.000,2735.000
2691.000,2667.000,2697.000
2659.000,2651.000,2658.000
2658.000,2625.000,2685.000
2675.000,2676.000,2641.000
2628.000,2626.000,2673.000
2660.000,2677.000,2670.000
2639.000,2663.000,2618.000
2687.000,2667.000,2649.000
2623.000,2659.000,2688.000
2608.000,2616.000,2627.000
2612.000,2642.000,2606.000
2587.000,2624.000,2635.000
2623.000,2638.000,2626.000
2614.000,2605.000,2601.000
2623.000,2629.000,2610.000
2603.000,2579.000,2653.000
2573.000,2592.000,2572.000
2612.000,2592.000,2598.000
2647.000,2561.000,2601.000
2598.000,2588.000,2612.000
2563.000,2562.000,2586.000
2607.000,2573.000,2575.000
2577.000,2613.000,2579.000
2579.000,2583.000,2616.000
2539.000,2555.000,2600.000
2623.000,2598.000,2589.000
2555.000,2606.000,2598.000
2578.000,2576.000,2614.000
2554.000,2563.000,2569.000
2609.000,2585.000,2545.000
2592.000,2616.000,2589.000
2544.000,2596.000,2590.000
2581.000,2594.000,2598.000
2583.000,2568.000,2575.000
2574.000,2601.000,2555.000
2559.000,2583.000,2600.000
2592.000,2576.000,2596.000
2589.000,2611.000,2610.000
2589.000,2587.000,2606.000
2564.000,2560.000,2583.000
2598.000,2619.000,2614.000
2621.000,2679.000,2608.000
2605.000,2614.000,2570.000
2647.000,2635.000,2621.000
2616.000,2625.000,2642.000
2669.000,2619.000,2622.000
2650.000,2645.000,2651.000
2640.000,2673.000,2608.000
2658.000,2665.000,2628.000
2628.000,2628.000,2606.000
2659.000,2590.000,2674.000
2681.000,2674.000,2665.000
2708.000,2674.000,2669.000
2651.000,2669.000,2661.000
2676.000,2649.000,2675.000
2661.000,2694.000,2666.000
2669.000,2668.000,2692.000
2681.000,2695.000,2702.000
2703.000,2659.000,2691.000
2695.000,2697.000,2746.000
2738.000,2744.000,2682.000
2743.000,2730.000,2704.000
2705.000,2721.000,2730.000
2684.000,2759.000,2684.000
2715.000,2772.000,2685.000
2735.000,2755.000,2704.000
2721.000,2762.000,2770.000
2730.000,2740.000,2733.000
2726.000,2753.000,2793.000
2716.000,2754.000,2771.000
2774.000,2748.000,2764.000
2750.000,2748.000,2780.000
2782.000,2752.000,2756.000
2775.000,2783.000,2763.000
2812.000,2780.000,2853.000
2757.000,2807.000,2769.000
2805.000,2810.000,2802.000
2809.000,2801.000,2806.000
2822.000,2787.000,2836.000
2809.000,2852.000,2836.000
2814.000,2893.000,2828.000
2897.000,2869.000,2867.000
2875.000,2830.000,2818.000
2866.000,2875.000,2863.000
2867.000,2841.000,2901.000
2908.000,2880.000,2923.000
2889.000,2881.000,2887.000
2935.000,2903.000,2893.000
2955.000,2985.000,2943.000
2880.000,2985.000,2936.000
2987.000,3010.000,2937.000
2988.000,3030.000,2981.000
3037.000,3027.000,2995.000
3023.000,3029.000,3022.000
3057.000,3011.000,3035.000
3089.000,3060.000,3089.000
3095.000,3125.000,3072.000
3040.000,3043.000,3080.000
3158.000,3149.000,3148.000
3126.000,3158.000,3178.000
3227.000,3222.000,3192.000
3263.000,3237.000,3242.000
3277.000,3256.000,3269.000
3370.000,3343.000,3292.000
3419.000,3378.000,3452.000
3459.000,3485.000,3442.000
3524.000,3476.000,3531.000
3591.000,3611.000,3653.000
3712.000,3716.000,3705.000
3791.000,3835.000,3806.000
3888.000,3892.000,3988.000
4068.000,4043.000,4060.000
4189.000,4186.000,4131.000
4229.000,4278.000,4227.000
4310.000,4365.000,4441.000
4455.000,4448.000,4505.000
4484.000,4580.000,4518.000
4519.000,4591.000,4551.000
4581.000,4553.000,4616.000
4519.000,4551.000,4588.000
4560.000,4543.000,4563.000
4532.000,4477.000,4510.000
4448.000,4449.000,4503.000
4389.000,4370.000,4363.000
4311.000,4322.000,4336.000
4188.000,4214.000,4229.000
4113.000,4091.000,4164.000
4044.000,4031.000,3995.000
3942.000,3960.000,3957.000
3848.000,3885.000,3838.000
3772.000,3782.000,3751.000
3669.000,3669.000,3681.000
3589.000,3607.000,3655.000
3594.000,3580.000,3513.000
3524.000,3486.000,3466.000
3483.000,3446.000,3440.000
3409.000,3401.000,3394.000
3354.000,3317.000,3353.000
3236.000,3297.000,3328.000
3265.000,3259.000,3267.000
3244.000,3198.000,3210.000
3201.000,3171.000,3150.000
3143.000,3172.000,3134.000
3074.000,3126.000,3131.000
3094.000,3092.000,3093.000
3084.000,3103.000,3075.000
3090.000,3047.000,3079.000
3067.000,3029.000,3026.000
3037.000,3054.000,3002.000
2996.000,2992.000,3027.000
2966.000,2992.000,3013.000
2943.000,2988.000,2996.000
2968.000,2972.000,2928.000
2962.000,2961.000,2970.000
2971.000,2947.000,2962.000
2984.000,2944.000,3003.000
2958.000,2985.000,2918.000
2938.000,3008.000,2935.000
2984.000,2962.000,3011.000
3007.000,2978.000,2973.000
2968.000,2987.000,2974.000
2989.000,2945.000,2964.000
2981.000,2964.000,2969.000
2955.000,2963.000,2943.000
2985.000,2971.000,2996.000
2953.000,2972.000,2930.000
2944.000,2923.000,2965.000
2910.000,2892.000,2886.000
2891.000,2884.000,2869.000
2864.000,2860.000,2878.000
2855.000,2858.000,2846.000
2821.000,2787.000,2778.000
2741.000,2781.000,2769.000
2767.000,2770.000,2765.000
2730.000,2709.000,2716.000
2663.000,2710.000,2686.000
2639.000,2660.000,2691.000
2635.000,2609.000,2630.000
2595.000,2601.000,2592.000
2581.000,2575.000,2567.000
2581.000,2547.000,2546.000
2515.000,2540.000,2525.000
2480.000,2489.000,2486.000
2451.000,2498.000,2493.000
2497.000,2441.000,2442.000
2408.000,2451.000,2415.000
2417.000,2426.000,2433.000
2415.000,2397.000,2397.000
2416.000,2368.000,2404.000
2366.000,2409.000,2339.000
2383.000,2406.000,2322.000
2344.000,2336.000,2351.000
2357.000,2334.000,2348.000
2330.000,2345.000,2319.000
2303.000,2320.000,2326.000
2342.000,2278.000,2352.000
2319.000,2310.000,2274.000
2283.000,2296.000,2288.000
2265.000,2242.000,2295.000
2283.000,2291.000,2294.000
2256.000,2252.000,2246.000
2233.000,2248.000,2264.000
2257.000,2244.000,2252.000
2257.000,2255.000,2261.000
2229.000,2257.000,2236.000
2231.000,2242.000,2246.000
2270.000,2239.000,2240.000
2248.000,2230.000,2233.000
2238.000,2211.000,2219.000
2208.000,2222.000,2206.000
2227.000,2207.000,2217.000
2220.000,2197.000,2214.000
2254.000,2213.000,2216.000
2209.000,2216.000,2245.000
2193.000,2203.000,2205.000
2204.000,2237.000,2219.000
2197.000,2206.000,2241.000
2212.000,2232.000,2213.000
2210.000,2190.000,2215.000
2207.000,2242.000,2195.000
2208.000,2210.000,2179.000
2248.000,2191.000,2193.000
2216.000,2217.000,2236.000
2211.000,2186.000,2215.000
2199.000,2195.000,2207.000
2212.000,2214.000,2163.000
2232.000,2208.000,2217.000
2209.000,2220.000,2227.000
2210.000,2190.000,2184.000
2216.000,2179.000,2168.000
2231.000,2210.000,2184.000
2197.000,2211.000,2234.000
2200.000,2208.000,2200.000
2218.000,2169.000,2223.000
2208.000,2240.000,2204.000
2179.000,2206.000,2196.000
2186.000,2196.000,2183.000
2186.000,2206.000,2191.000
2240.000,2211.000,2213.000
2198.000,2220.000,2200.000
2179.000,2200.000,2225.000
2197.000,2227.000,2225.000
2216.000,2225.000,2201.000
2230.000,2230.000,2196.000
2253.000,2204.000,2240.000
2217.000,2228.000,2246.000
2241.000,2250.000,2229.000
2265.000,2243.000,2249.000
2276.000,2261.000,2276.000
2279.000,2275.000,2234.000
2282.000,2300.000,2300.000
2275.000,2260.000,2284.000
2285.000,2285.000,2279.000
2283.000,2284.000,2302.000
2299.000,2246.000,2259.000
2283.000,2295.000,2290.000
2250.000,2261.000,2274.000
2262.000,2302.000,2289.000
2246.000,2239.000,2261.000
2256.000,2217.000,2260.000
2230.000,2237.000,2275.000
2232.000,2229.000,2243.000
2237.000,2219.000,2224.000
2225.000,2226.000,2247.000
2222.000,2215.000,2226.000
2191.000,2212.000,2200.000
2216.000,2199.000,2211.000
2188.000,2204.000,2201.000
2216.000,2215.000,2216.000
2201.000,2204.000,2169.000
2206.000,2181.000,2211.000
2194.000,2190.000,2166.000
2178.000,2174.000,2188.000
2151.000,2165.000,2147.000
2176.000,2140.000,2175.000
2170.000,2154.000,2144.000
2145.000,2113.000,2140.000
2151.000,2141.000,2162.000
2122.000,2151.000,2123.000
2139.000,2159.000,2138.000
2167.000,2123.000,2171.000
2152.000,2158.000,2118.000
2163.000,2150.000,2119.000
2112.000,2135.000,2145.000
2134.000,2132.000,2132.000
2141.000,2126.000,2142.000
2105.000,2137.000,2127.000
2121.000,2146.000,2179.000
2132.000,2110.000,2115.000
2104.000,2119.000,2100.000
2132.000,2127.000,2137.000
2123.000,2134.000,2149.000
2146.000,2118.000,2110.000
2094.000,2099.000,2111.000
2137.000,2110.000,2111.000
2108.000,2114.000,2128.000
2138.000,2072.000,2127.000
2118.000,2121.000,2156.000
2107.000,2089.000,2121.000
2099.000,2115.000,2139.000
2116.000,2123.000,2087.000
2131.000,2119.000,2109.000
2132.000,2106.000,2134.000
2146.000,2142.000,2097.000
2103.000,2130.000,2110.000
2150.000,2148.000,2115.000
2097.000,2097.000,2131.000
2103.000,2091.000,2140.000
2132.000,2115.000,2107.000
2104.000,2122.000,2107.000
2103.000,2134.000,2128.000
2125.000,2148.000,2123.000
2105.000,2133.000,2132.000
2096.000,2095.000,2136.000
2138.000,2138.000,2086.000
2099.000,2093.000,2110.000
2109.000,2091.000,2110.000
2101.000,2131.000,2158.000
2119.000,2090.000,2135.000
2111.000,2103.000,2129.000
2115.000,2108.000,2134.000
2112.000,2095.000,2140.000
2093.000,2140.000,2145.000
2159.000,2117.000,2120.000
2124.000,2134.000,2133.000
2169.000,2142.000,2124.000
2104.000,2111.000,2131.000
2145.000,2140.000,2139.000
2129.000,2135.000,2113.000
2109.000,2142.000,2151.000
2121.000,2123.000,2132.000
2135.000,2098.000,2114.000
2124.000,2127.000,2111.000
2137.000,2122.000,2149.000
2125.000,2101.000,2142.000
2123.000,2122.000,2107.000
2126.000,2105.000,2149.000
2141.000,2113.000,2139.000
2115.000,2111.000,2120.000
2149.000,2146.000,2124.000
2121.000,2121.000,2129.000
2100.000,2161.000,2139.000
2115.000,2139.000,2144.000
2158.000,2107.000,2119.000
2134.000,2104.000,2144.000
2151.000,2128.000,2138.000
2132.000,2115.000,2111.000
2140.000,2122.000,2132.000
2154.000,2170.000,2141.000
2132.000,2133.000,2153.000
2160.000,2151.000,2160.000
2139.000,2151.000,2143.000
2128.000,2126.000,2124.000
2155.000,2134.000,2133.000
2106.000,2182.000,2151.000
2178.000,2136.000,2146.000
2154.000,2111.000,2141.000
2151.000,2118.000,2135.000
2139.000,2134.000,2160.000
2146.000,2119.000,2139.000
2134.000,2144.000,2120.000
2147.000,2121.000,2160.000
2158.000,2154.000,2148.000
2164.000,2169.000,2147.000
2175.000,2146.000,2152.000
2149.000,2149.000,2161.000
2155.000,2148.000,2175.000
2167.000,2150.000,2151.000
2157.000,2148.000,2155.000
2169.000,2203.000,2143.000
2178.000,2163.000,2153.000
2148.000,2195.000,2145.000
2147.000,2169.000,2195.000
2200.000,2186.000,2192.000
2163.000,2185.000,2172.000
2177.000,2194.000,2157.000
2180.000,2177.000,2159.000
2238.000,2173.000,2171.000
2179.000,2192.000,2155.000
2161.000,2210.000,2202.000
2181.000,2177.000,2189.000
2184.000,2200.000,2194.000
2171.000,2211.000,2190.000
2195.000,2181.000,2190.000
2181.000,2190.000,2205.000
2187.000,2222.000,2187.000
2232.000,2169.000,2201.000
2186.000,2218.000,2193.000
2211.000,2193.000,2253.000
2215.000,2227.000,2212.000
2210.000,2245.000,2204.000
2248.000,2235.000,2243.000
2247.000,2242.000,2248.000
2263.000,2239.000,2262.000
2226.000,2231.000,2258.000
2269.000,2277.000,2249.000
2256.000,2277.000,2261.000
2289.000,2263.000,2332.000
2266.000,2257.000,2277.000
2292.000,2303.000,2258.000
2275.000,2314.000,2298.000
2298.000,2298.000,2281.000
2299.000,2306.000,2303.000
2323.000,2322.000,2322.000
2347.000,2319.000,2311.000
2297.000,2319.000,2339.000
2351.000,2348.000,2347.000
2357.000,2341.000,2350.000
2357.000,2347.000,2355.000
2367.000,2313.000,2365.000
2365.000,2362.000,2367.000
2347.000,2326.000,2329.000
2350.000,2356.000,2393.000
2371.000,2393.000,2376.000
2425.000,2389.000,2359.000
2415.000,2357.000,2372.000
2414.000,2407.000,2380.000
2408.000,2414.000,2452.000
2407.000,2399.000,2437.000
2428.000,2403.000,2429.000
2447.000,2414.000,2446.000
2471.000,2459.000,2420.000
2490.000,2403.000,2485.000
2450.000,2447.000,2464.000
2457.000,2481.000,2470.000
2479.000,2453.000,2463.000
2490.000,2524.000,2502.000
2483.000,2441.000,2468.000
2461.000,2492.000,2476.000
2486.000,2471.000,2454.000
2413.000,2506.000,2500.000
2508.000,2471.000,2480.000
2497.000,2493.000,2453.000
2471.000,2500.000,2509.000
2479.000,2470.000,2484.000
2457.000,2530.000,2465.000
2509.000,2486.000,2489.000
2466.000,2522.000,2519.000
2483.000,2512.000,2515.000
2490.000,2501.000,2489.000
2487.000,2517.000,2497.000
2528.000,2499.000,2494.000
2504.000,2506.000,2547.000
2526.000,2539.000,2563.000
2540.000,2545.000,2499.000
2551.000,2555.000,2549.000
2531.000,2519.000,2585.000
2538.000,2556.000,2536.000
2607.000,2589.000,2565.000
2589.000,2567.000,2572.000
2604.000,2597.000,2614.000
2636.000,2610.000,2606.000
2627.000,2611.000,2582.000
2619.000,2626.000,2622.000
2649.000,2649.000,2646.000
2698.000,2688.000,2623.000
2695.000,2679.000,2699.000
2712.000,2754.000,2678.000
2731.000,2734.000,2747.000
2751.000,2725.000,2757.000
2799.000,2772.000,2799.000
2807.000,2814.000,2821.000
2848.000,2856.000,2857.000
2876.000,2885.000,2855.000
2973.000,2946.000,2988.000
2957.000,3026.000,2995.000
3063.000,3109.000,3101.000
3133.000,3139.000,3125.000
3243.000,3216.000,3190.000
3340.000,3337.000,3306.000
3444.000,3491.000,3452.000
3626.000,3612.000,3610.000
3806.000,3795.000,3771.000
4040.000,4038.000,4027.000
4277.000,4272.000,4298.000
4578.000,4561.000,4591.000
4973.000,4987.000,5085.000
5624.000,5595.000,5566.000
6224.000,6220.000,6254.000
7106.000,7081.000,7138.000
8125.000,8132.000,8083.000
9266.000,9168.000,9319.000
10429.000,10512.000,10613.000
11858.000,11959.000,11883.000
13125.000,13222.000,13263.000
14453.000,14427.000,14487.000
15500.000,15444.000,15437.000
16210.000,16279.000,16220.000
16431.000,16585.000,16620.000
16306.000,16300.000,16377.000
15948.000,15724.000,15978.000
14937.000,14987.000,15036.000
13795.000,13728.000,13677.000
12565.000,12491.000,12387.000
11266.000,11133.000,11078.000
9815.000,9883.000,9778.000
8654.000,8524.000,8546.000
7446.000,7433.000,7460.000
6601.000,6616.000,6546.000
5789.000,5772.000,5720.000
5230.000,5232.000,5118.000
4773.000,4727.000,4694.000
4395.000,4352.000,4341.000
4067.000,4054.000,4042.000
3841.000,3791.000,3789.000
3637.000,3654.000,3620.000
3462.000,3474.000,3432.000
3342.000,3351.000,3336.000
3186.000,3187.000,3221.000
3128.000,3174.000,3121.000
3095.000,3092.000,3025.000
2968.000,3011.000,2960.000
2896.000,2891.000,2879.000
2919.000,2892.000,2853.000
2865.000,2792.000,2850.000
2814.000,2790.000,2743.000
2741.000,2725.000,2744.000
2747.000,2717.000,2696.000
2683.000,2701.000,2666.000
2643.000,2630.000,2701.000
2601.000,2642.000,2623.000
2624.000,2589.000,2603.000
2597.000,2588.000,2581.000
2578.000,2570.000,2567.000
2541.000,2524.000,2525.000
2529.000,2515.000,2532.000
2517.000,2487.000,2529.000
2513.000,2507.000,2502.000
2482.000,2493.000,2471.000
2460.000,2461.000,2520.000
2489.000,2466.000,2509.000
2440.000,2474.000,2445.000
2480.000,2445.000,2479.000
2457.000,2448.000,2419.000
2433.000,2439.000,2438.000
2462.000,2438.000,2408.000
2395.000,2419.000,2437.000
2409.000,2411.000,2415.000
2458.000,2437.000,2396.000
2380.000,2407.000,2384.000
2412.000,2436.000,2387.000
2407.000,2397.000,2389.000
2376.000,2403.000,2418.000
2416.000,2372.000,2376.000
2396.000,2400.000,2367.000
2375.000,2388.000,2380.000
2362.000,2362.000,2378.000
2352.000,2359.000,2370.000
2387.000,2364.000,2369.000
2342.000,2357.000,2326.000
2355.000,2363.000,2389.000
2383.000,2381.000,2346.000
2363.000,2367.000,2387.000
2355.000,2325.000,2376.000
2348.000,2391.000,2357.000
2367.000,2357.000,2384.000
2393.000,2355.000,2387.000
2356.000,2386.000,2315.000
2377.000,2368.000,2372.000
2344.000,2351.000,2329.000
2362.000,2355.000,2337.000
2362.000,2348.000,2326.000
2346.000,2364.000,2370.000
2398.000,2358.000,2352.000
2318.000,2371.000,2361.000
2314.000,2383.000,2374.000
2374.000,2370.000,2391.000
2367.000,2362.000,2416.000
2377.000,2351.000,2362.000
2371.000,2357.000,2356.000
2369.000,2364.000,2363.000
2371.000,2360.000,2422.000
2413.000,2361.000,2414.000
2402.000,2361.000,2374.000
2408.000,2415.000,2368.000
2415.000,2426.000,2370.000
2394.000,2376.000,2390.000
2379.000,2450.000,2391.000
2423.000,2365.000,2425.000
2370.000,2401.000,2409.000
2392.000,2446.000,2401.000
2443.000,2411.000,2401.000
2406.000,2420.000,2408.000
2464.000,2413.000,2438.000
2400.000,2458.000,2450.000
2417.000,2418.000,2428.000
2482.000,2420.000,2428.000
2433.000,2479.000,2436.000
2476.000,2510.000,2439.000
2521.000,2469.000,2493.000
2445.000,2456.000,2519.000
2499.000,2502.000,2470.000
2498.000,2499.000,2491.000
2508.000,2478.000,2516.000
2510.000,2523.000,2511.000
2510.000,2517.000,2552.000
2536.000,2542.000,2546.000
2529.000,2560.000,2513.000
2553.000,2574.000,2597.000
2587.000,2555.000,2588.000
2558.000,2583.000,2567.000
2620.000,2589.000,2616.000
2645.000,2641.000,2669.000
2629.000,2641.000,2674.000
2704.000,2639.000,2656.000
2692.000,2698.000,2691.000
2710.000,2707.000,2730.000
2699.000,2731.000,2706.000
2735.000,2786.000,2756.000
2755.000,2731.000,2751.000
2819.000,2768.000,2794.000
2856.000,2846.000,2849.000
2902.000,2866.000,2911.000
2922.000,2917.000,2871.000
2947.000,2945.000,2942.000
2961.000,2989.000,2981.000
3077.000,3038.000,3041.000
3104.000,3101.000,3095.000
3162.000,3181.000,3130.000
3239.000,3275.000,3233.000
3300.000,3311.000,3269.000
3372.000,3395.000,3407.000
3500.000,3477.000,3491.000
3608.000,3643.000,3638.000
3732.000,3699.000,3690.000
3863.000,3849.000,3834.000
3990.000,4045.000,4064.000
4198.000,4242.000,4247.000
4404.000,4477.000,4396.000
4580.000,4644.000,4661.000
4931.000,4915.000,4942.000
5126.000,5223.000,5183.000
5371.000,5440.000,5399.000
5699.000,5642.000,5602.000
5772.000,5893.000,5892.000
6055.000,6059.000,6122.000
6199.000,6232.000,6289.000
6380.000,6391.000,6350.000
6429.000,6391.000,6382.000
6416.000,6433.000,6359.000
6467.000,6441.000,6358.000
6430.000,6442.000,6339.000
6144.000,6214.000,6214.000
6056.000,6019.000,5986.000
5926.000,5871.000,5853.000
5661.000,5624.000,5676.000
5425.000,5480.000,5428.000
5268.000,5274.000,5217.000
5055.000,5020.000,5043.000
4762.000,4855.000,4854.000
4666.000,4647.000,4595.000
4529.000,4537.000,4547.000
4389.000,4377.000,4326.000
4333.000,4328.000,4361.000
4293.000,4263.000,4266.000
4220.000,4225.000,4155.000
4263.000,4156.000,4239.000
4231.000,4148.000,4238.000
4204.000,4215.000,4253.000
4265.000,4271.000,4269.000
4302.000,4261.000,4253.000
4290.000,4331.000,4253.000
4384.000,4415.000,4340.000
4463.000,4493.000,4504.000
4526.000,4581.000,4550.000
4624.000,4632.000,4688.000
4698.000,4698.000,4673.000
4829.000,4844.000,4842.000
4924.000,5014.000,5010.000
4974.000,5083.000,5127.000
5237.000,5213.000,5252.000
5327.000,5358.000,5358.000
5460.000,5499.000,5546.000
5662.000,5625.000,5637.000
5765.000,5779.000,5743.000
5901.000,5907.000,5862.000
6089.000,6030.000,6015.000
6075.000,6037.000,6052.000
6075.000,6024.000,6089.000
6067.000,6038.000,6037.000
5935.000,5978.000,5896.000
5778.000,5761.000,5823.000
5608.000,5642.000,5586.000
5439.000,5469.000,5409.000
5271.000,5246.000,5243.000
5019.000,5050.000,4986.000
4843.000,4811.000,4830.000
4551.000,4645.000,4652.000
4460.000,4468.000,4415.000
4216.000,4292.000,4284.000
4107.000,4078.000,4036.000
3923.000,3950.000,3981.000
3839.000,3751.000,3816.000
3777.000,3750.000,3763.000
3690.000,3668.000,3647.000
3595.000,3607.000,3604.000
3573.000,3556.000,3499.000
3503.000,3520.000,3545.000
3479.000,3518.000,3466.000
3410.000,3427.000,3417.000
3406.000,3383.000,3386.000
3377.000,3384.000,3384.000
3343.000,3333.000,3419.000
3372.000,3336.000,3387.000
3339.000,3295.000,3390.000
3327.000,3301.000,3355.000
3283.000,3308.000,3226.000
3222.000,3250.000,3277.000
3284.000,3305.000,3240.000
3258.000,3218.000,3217.000
3229.000,3173.000,3199.000
3164.000,3127.000,3119.000
3134.000,3128.000,3123.000
3092.000,3066.000,3102.000
3038.000,3019.000,3058.000
3015.000,3016.000,3003.000
2960.000,2999.000,2952.000
2937.000,2887.000,2982.000
2880.000,2907.000,2948.000
2852.000,2907.000,2912.000
2883.000,2796.000,2818.000
2778.000,2779.000,2824.000
2802.000,2779.000,2775.000
2764.000,2760.000,2748.000
2746.000,2729.000,2731.000
2753.000,2701.000,2716.000
2742.000,2666.000,2664.000
2655.000,2691.000,2686.000
2663.000,2666.000,2658.000
2696.000,2633.000,2662.000
2613.000,2639.000,2636.000
2631.000,2670.000,2658.000
2620.000,2591.000,2585.000
2593.000,2574.000,2577.000
2571.000,2620.000,2601.000
2561.000,2594.000,2630.000
2559.000,2589.000,2564.000
2592.000,2609.000,2566.000
2561.000,2585.000,2609.000
2557.000,2559.000,2559.000
2539.000,2557.000,2509.000
2537.000,2534.000,2563.000
2538.000,2503.000,2548.000
2521.000,2551.000,2569.000
2535.000,2511.000,2483.000
2543.000,2497.000,2508.000
2494.000,2496.000,2477.000
2479.000,2460.000,2479.000
2481.000,2442.000,2493.000
2465.000,2479.000,2475.000
2427.000,2477.000,2451.000
2435.000,2418.000,2473.000
2422.000,2454.000,2471.000
2416.000,2454.000,2447.000
2432.000,2414.000,2420.000
2442.000,2419.000,2414.000
2443.000,2419.000,2443.000
2411.000,2377.000,2408.000
2396.000,2421.000,2399.000
2422.000,2378.000,2398.000
2411.000,2408.000,2407.000
2396.000,2393.000,2390.000
2404.000,2400.000,2413.000
2405.000,2434.000,2434.000
2417.000,2422.000,2421.000
2452.000,2426.000,2433.000
2437.000,2435.000,2402.000
2445.000,2409.000,2424.000
2402.000,2434.000,2414.000
2442.000,2427.000,2413.000
2400.000,2417.000,2429.000
2402.000,2422.000,2386.000
2414.000,2396.000,2401.000
2406.000,2412.000,2372.000
2391.000,2390.000,2414.000
2419.000,2378.000,2403.000
2426.000,2396.000,2408.000
2415.000,2419.000,2404.000
2391.000,2382.000,2375.000
2415.000,2422.000,2406.000
2415.000,2399.000,2395.000
2387.000,2399.000,2414.000
2431.000,2432.000,2425.000
2425.000,2450.000,2421.000
2448.000,2439.000,2430.000
2416.000,2425.000,2434.000
2407.000,2438.000,2422.000
2435.000,2388.000,2395.000
2427.000,2462.000,2453.000
2451.000,2461.000,2481.000
2436.000,2390.000,2415.000
2440.000,2426.000,2430.000
2453.000,2443.000,2475.000
2430.000,2425.000,2449.000
2465.000,2427.000,2409.000
2445.000,2448.000,2475.000
2443.000,2412.000,2422.000
2469.000,2434.000,2428.000
2499.000,2454.000,2479.000
2477.000,2508.000,2490.000
2470.000,2521.000,2470.000
2501.000,2498.000,2492.000
2481.000,2497.000,2513.000
2481.000,2514.000,2501.000
2514.000,2509.000,2521.000
2530.000,2535.000,2545.000
2505.000,2511.000,2543.000
2540.000,2509.000,2523.000
2555.000,2528.000,2492.000
2551.000,2561.000,2549.000
2555.000,2563.000,2555.000
2595.000,2570.000,2538.000
2581.000,2550.000,2603.000
2607.000,2618.000,2588.000
2607.000,2595.000,2613.000
2588.000,2645.000,2588.000
2637.000,2624.000,2602.000
2617.000,2620.000,2609.000
2631.000,2647.000,2656.000
2665.000,2649.000,2629.000
2637.000,2675.000,2659.000
2662.000,2684.000,2651.000
2679.000,2681.000,2705.000
2678.000,2680.000,2711.000
2701.000,2691.000,2677.000
2685.000,2736.000,2709.000
2744.000,2724.000,2715.000
2717.000,2714.000,2710.000
2743.000,2707.000,2709.000
2783.000,2738.000,2766.000
2746.000,2711.000,2763.000
2799.000,2837.000,2826.000
2809.000,2839.000,2822.000
2851.000,2837.000,2837.000
2836.000,2858.000,2911.000
2915.000,2864.000,2891.000
2932.000,2871.000,2903.000
2946.000,2947.000,2924.000
2940.000,2936.000,2982.000
3015.000,3010.000,2997.000
3050.000,3000.000,3015.000
3052.000,3054.000,3062.000
3129.000,3108.000,3067.000
3132.000,3169.000,3170.000
3261.000,3240.000,3235.000
3303.000,3318.000,3346.000
3426.000,3370.000,3399.000
3475.000,3470.000,3483.000
3598.000,3591.000,3566.000
3673.000,3680.000,3677.000
3757.000,3756.000,3781.000
3858.000,3866.000,3870.000
3934.000,3927.000,3910.000
3989.000,3949.000,4011.000
4029.000,3995.000,3991.000
4051.000,4015.000,4022.000
3982.000,4052.000,3986.000
3970.000,4022.000,3950.000
3941.000,3943.000,3928.000
3892.000,3858.000,3899.000
3850.000,3915.000,3860.000
3803.000,3787.000,3759.000
3713.000,3695.000,3675.000
3632.000,3596.000,3635.000
3562.000,3527.000,3493.000
3493.000,3511.000,3471.000
3453.000,3374.000,3426.000
3361.000,3375.000,3337.000
3254.000,3269.000,3284.000
3264.000,3202.000,3201.000
3137.000,3159.000,3235.000
3108.000,3120.000,3129.000
3122.000,3118.000,3109.000
3078.000,3062.000,3065.000
3066.000,2996.000,3064.000
3031.000,2978.000,2939.000
2982.000,2977.000,2975.000
2921.000,2945.000,2946.000
2934.000,2964.000,2912.000
2942.000,2900.000,2934.000
2891.000,2956.000,2900.000
2877.000,2938.000,2914.000
2933.000,2847.000,2894.000
2926.000,2906.000,2914.000
2892.000,2884.000,2919.000
2852.000,2876.000,2855.000
2834.000,2836.000,2898.000
2858.000,2837.000,2868.000
2860.000,2864.000,2871.000
2854.000,2855.000,2832.000
2863.000,2836.000,2811.000
2883.000,2831.000,2850.000
2888.000,2829.000,2865.000
2872.000,2900.000,2853.000
2810.000,2850.000,2860.000
2824.000,2847.000,2811.000
2836.000,2811.000,2838.000
2795.000,2815.000,2799.000
2798.000,2811.000,2810.000
2833.000,2855.000,2769.000
2762.000,2803.000,2801.000
2789.000,2768.000,2817.000
2816.000,2793.000,2765.000
2733.000,2833.000,2759.000
2790.000,2758.000,2763.000
2814.000,2753.000,2757.000
2792.000,2748.000,2771.000
2828.000,2781.000,2761.000
2780.000,2771.000,2824.000
2802.000,2754.000,2767.000
2788.000,2751.000,2752.000
2739.000,2763.000,2781.000
2806.000,2775.000,2742.000
2751.000,2786.000,2827.000
2809.000,2783.000,2772.000
2778.000,2788.000,2777.000
2829.000,2770.000,2790.000
2771.000,2769.000,2794.000
2782.000,2789.000,2795.000
2839.000,2765.000,2793.000
2785.000,2727.000,2809.000
2807.000,2753.000,2785.000
2787.000,2763.000,2811.000
2778.000,2738.000,2757.000
2740.000,2797.000,2774.000
2761.000,2739.000,2764.000
2791.000,2778.000,2807.000
2759.000,2790.000,2768.000
2787.000,2787.000,2779.000
2745.000,2731.000,2752.000
2778.000,2746.000,2761.000
2771.000,2777.000,2727.000
2808.000,2767.000,2775.000
2789.000,2776.000,2762.000
2788.000,2811.000,2786.000
2829.000,2784.000,2819.000
2776.000,2800.000,2794.000
2761.000,2763.000,2789.000
2799.000,2778.000,2803.000
2825.000,2849.000,2772.000
2803.000,2820.000,2795.000
2790.000,2747.000,2819.000
2856.000,2871.000,2807.000
2856.000,2840.000,2855.000
2865.000,2835.000,2850.000
2871.000,2876.000,2886.000
2846.000,2864.000,2836.000
2854.000,2853.000,2847.000
2894.000,2871.000,2853.000
2852.000,2852.000,2884.000
2918.000,2906.000,2888.000
2956.000,2936.000,2929.000
2923.000,2941.000,2894.000
2909.000,2899.000,2954.000
2972.000,2993.000,2968.000
2969.000,2959.000,2956.000
3004.000,3006.000,2981.000
3012.000,3002.000,2977.000
2998.000,3039.000,3000.000
2997.000,2991.000,3040.000
3043.000,3051.000,3015.000
3031.000,3050.000,3082.000
3045.000,3012.000,3099.000
3078.000,3068.000,3032.000
3043.000,3063.000,3080.000
3079.000,3084.000,3042.000
3091.000,3055.000,3052.000
3097.000,3021.000,3047.000
3095.000,3051.000,3056.000
3041.000,3060.000,3036.000
3108.000,3053.000,3068.000
3047.000,3141.000,3109.000
3108.000,3070.000,3080.000
3101.000,3101.000,3059.000
3071.000,3122.000,3101.000
3126.000,3128.000,3135.000
3114.000,3161.000,3106.000
3090.000,3140.000,3111.000
3083.000,3137.000,3166.000
3137.000,3162.000,3172.000
3151.000,3125.000,3185.000
3120.000,3164.000,3195.000
3149.000,3194.000,3183.000
3182.000,3178.000,3201.000
3248.000,3219.000,3247.000
3223.000,3200.000,3272.000
3275.000,3229.000,3258.000
3214.000,3254.000,3256.000
3233.000,3282.000,3276.000
3319.000,3268.000,3279.000
3311.000,3275.000,3283.000
3279.000,3311.000,3288.000
3362.000,3355.000,3339.000
3334.000,3318.000,3315.000
3351.000,3367.000,3336.000
3330.000,3328.000,3367.000
3390.000,3313.000,3389.000
3365.000,3370.000,3382.000
3428.000,3393.000,3383.000
3416.000,3327.000,3368.000
3402.000,3456.000,3420.000
3469.000,3483.000,3434.000
3462.000,3416.000,3434.000
3479.000,3463.000,3473.000
3505.000,3451.000,3467.000
3495.000,3499.000,3536.000
3537.000,3542.000,3503.000
3531.000,3550.000,3586.000
3627.000,3566.000,3590.000
3628.000,3626.000,3627.000
3669.000,3641.000,3660.000
3684.000,3644.000,3703.000
3682.000,3691.000,3739.000
3739.000,3771.000,3775.000
3770.000,3813.000,3848.000
3845.000,3865.000,3880.000
3900.000,3839.000,3899.000
3991.000,3899.000,3934.000
4042.000,3977.000,3991.000
4011.000,4078.000,4116.000
4147.000,4151.000,4109.000
4191.000,4170.000,4154.000
4332.000,4308.000,4292.000
4428.000,4463.000,4460.000
4542.000,4490.000,4525.000
4640.000,4619.000,4687.000
4772.000,4810.000,4810.000
4966.000,5007.000,4962.000
5115.000,5083.000,5115.000
5262.000,5275.000,5265.000
5466.000,5452.000,5486.000
5619.000,5656.000,5704.000
5856.000,5841.000,5846.000
5995.000,6000.000,6031.000
6127.000,6106.000,6120.000
6122.000,6233.000,6177.000
6326.000,6287.000,6281.000
6275.000,6320.000,6286.000
6278.000,6279.000,6242.000
6178.000,6185.000,6160.000
6086.000,6051.000,6027.000
5846.000,5823.000,5926.000
5714.000,5673.000,5608.000
5410.000,5445.000,5449.000
5235.000,5244.000,5230.000
4995.000,5009.000,4989.000
4851.000,4764.000,4815.000
4711.000,4655.000,4602.000
4470.000,4470.000,4509.000
4374.000,4291.000,4336.000
4262.000,4175.000,4240.000
4204.000,4061.000,4119.000
4011.000,4059.000,4000.000
3924.000,3955.000,3956.000
3968.000,4013.000,3871.000
3908.000,3825.000,3833.000
3847.000,3834.000,3794.000
3868.000,3830.000,3822.000
3807.000,3797.000,3797.000
3814.000,3805.000,3736.000
3783.000,3781.000,3775.000
3831.000,3806.000,3816.000
3806.000,3830.000,3874.000
3840.000,3799.000,3910.000
3903.000,3822.000,3863.000
3867.000,3866.000,3778.000
3848.000,3884.000,3901.000
3913.000,3823.000,3855.000
3835.000,3873.000,3846.000
3786.000,3831.000,3832.000
3757.000,3782.000,3740.000
3675.000,3754.000,3697.000
3693.000,3629.000,3701.000
3643.000,3638.000,3592.000
3570.000,3511.000,3586.000
3517.000,3472.000,3528.000
3444.000,3459.000,3448.000
3363.000,3371.000,3370.000
3353.000,3346.000,3354.000
3262.000,3246.000,3237.000
3176.000,3195.000,3201.000
3142.000,3151.000,3131.000
3134.000,3096.000,3073.000
3096.000,3087.000,3117.000
3069.000,3061.000,3017.000
3000.000,2991.000,2997.000
2920.000,2953.000,2967.000
2960.000,2950.000,2931.000
2904.000,2907.000,2907.000
2941.000,2896.000,2922.000
2878.000,2837.000,2855.000
2841.000,2890.000,2874.000
2812.000,2815.000,2817.000
2807.000,2820.000,2817.000
2785.000,2830.000,2808.000
2829.000,2811.000,2808.000
2745.000,2784.000,2775.000
2817.000,2777.000,2825.000
2802.000,2724.000,2764.000
2760.000,2701.000,2733.000
2768.000,2727.000,2695.000
2692.000,2760.000,2770.000
2703.000,2709.000,2715.000
2665.000,2737.000,2707.000
2685.000,2691.000,2701.000
2710.000,2720.000,2700.000
2685.000,2664.000,2699.000
2648.000,2627.000,2597.000
2632.000,2683.000,2667.000
2611.000,2662.000,2653.000
2605.000,2644.000,2624.000
2606.000,2618.000,2629.000
2597.000,2621.000,2625.000
2611.000,2541.000,2591.000
2583.000,2583.000,2612.000
2562.000,2568.000,2594.000
2594.000,2567.000,2580.000
2566.000,2539.000,2556.000
2552.000,2521.000,2557.000
2495.000,2513.000,2528.000
2531.000,2519.000,2516.000
2488.000,2529.000,2532.000
2498.000,2513.000,2495.000
2473.000,2485.000,2476.000
2489.000,2437.000,2475.000
2510.000,2501.000,2492.000
2516.000,2479.000,2455.000
2473.000,2491.000,2469.000
2439.000,2448.000,2435.000
2413.000,2436.000,2411.000
2439.000,2456.000,2427.000
2429.000,2406.000,2413.000
2429.000,2410.000,2429.000
2403.000,2415.000,2411.000
2414.000,2441.000,2387.000
2388.000,2388.000,2399.000
2401.000,2374.000,2379.000
2377.000,2361.000,2360.000
2404.000,2399.000,2375.000
2383.000,2382.000,2371.000
2383.000,2332.000,2383.000
2396.000,2354.000,2340.000
2370.000,2385.000,2377.000
2382.000,2370.000,2387.000
2389.000,2377.000,2395.000
2397.000,2366.000,2380.000
2375.000,2345.000,2365.000
2378.000,2342.000,2374.000
2374.000,2329.000,2365.000
2354.000,2351.000,2356.000
2363.000,2335.000,2384.000
2349.000,2368.000,2345.000
2343.000,2342.000,2369.000
2357.000,2358.000,2354.000
2340.000,2349.000,2326.000
2369.000,2364.000,2349.000
2340.000,2384.000,2376.000
2340.000,2356.000,2310.000
2332.000,2317.000,2330.000
2339.000,2371.000,2375.000
2312.000,2353.000,2317.000
2326.000,2296.000,2291.000
2339.000,2302.000,2312.000
2313.000,2332.000,2307.000
2316.000,2344.000,2314.000
2258.000,2300.000,2277.000
2308.000,2302.000,2287.000
2296.000,2307.000,2253.000
2295.000,2252.000,2285.000
2258.000,2278.000,2268.000
2292.000,2298.000,2234.000
2265.000,2275.000,2253.000
2282.000,2301.000,2243.000
2276.000,2267.000,2268.000
2234.000,2239.000,2239.000
2278.000,2265.000,2240.000
2250.000,2272.000,2276.000
2235.000,2260.000,2240.000
2265.000,2267.000,2247.000
2258.000,2220.000,2234.000
2267.000,2247.000,2281.000
2232.000,2265.000,2246.000
2248.000,2234.000,2229.000
2289.000,2262.000,2240.000
2216.000,2225.000,2250.000
2261.000,2252.000,2227.000
2249.000,2237.000,2239.000
2231.000,2257.000,2244.000
2266.000,2227.000,2247.000
2222.000,2247.000,2258.000
2239.000,2227.000,2219.000
2232.000,2261.000,2257.000
2219.000,2280.000,2243.000
2256.000,2233.000,2258.000
2249.000,2249.000,2247.000
2242.000,2260.000,2289.000
2263.000,2229.000,2246.000
2271.000,2219.000,2247.000
2279.000,2268.000,2268.000
2274.000,2251.000,2266.000
2222.000,2268.000,2242.000
2248.000,2282.000,2246.000
2251.000,2243.000,2253.000
2235.000,2250.000,2243.000
2284.000,2249.000,2213.000
2258.000,2276.000,2242.000
2255.000,2296.000,2284.000
2251.000,2232.000,2240.000
2220.000,2234.000,2280.000
2218.000,2271.000,2242.000
2240.000,2226.000,2250.000
2231.000,2239.000,2269.000
2240.000,2227.000,2207.000
2245.000,2224.000,2217.000
2224.000,2203.000,2187.000
2238.000,2222.000,2243.000
2239.000,2214.000,2199.000
2224.000,2227.000,2190.000
2226.000,2177.000,2206.000
2232.000,2225.000,2213.000
2202.000,2180.000,2209.000
2186.000,2174.000,2225.000
2200.000,2211.000,2213.000
2204.000,2172.000,2220.000
2207.000,2208.000,2174.000
2234.000,2207.000,2193.000
2185.000,2185.000,2178.000
2196.000,2200.000,2183.000
2203.000,2232.000,2176.000
2200.000,2228.000,2199.000
2232.000,2235.000,2194.000
2181.000,2199.000,2225.000
2204.000,2190.000,2225.000
2232.000,2220.000,2209.000
2197.000,2147.000,2219.000
2207.000,2209.000,2224.000
2202.000,2188.000,2212.000
2198.000,2200.000,2209.000
2203.000,2152.000,2195.000
2172.000,2178.000,2208.000
2179.000,2203.000,2208.000
2190.000,2173.000,2204.000
2181.000,2171.000,2195.000
2210.000,2199.000,2169.000
2216.000,2180.000,2151.000
2175.000,2185.000,2185.000
2147.000,2188.000,2174.000
2195.000,2146.000,2143.000
2161.000,2147.000,2159.000
2120.000,2125.000,2121.000
2136.000,2141.000,2154.000
2123.000,2138.000,2135.000
2131.000,2146.000,2142.000
2143.000,2097.000,2088.000
2098.000,2130.000,2103.000
2110.000,2146.000,2142.000
2154.000,2112.000,2134.000
2146.000,2111.000,2149.000
2129.000,2113.000,2146.000
2127.000,2119.000,2130.000
2174.000,2146.000,2156.000
2155.000,2133.000,2126.000
2134.000,2086.000,2134.000
2141.000,2129.000,2099.000
2114.000,2110.000,2131.000
2128.000,2114.000,2107.000
2087.000,2159.000,2142.000
2122.000,2118.000,2156.000
2130.000,2093.000,2099.000
2168.000,2127.000,2139.000
2119.000,2119.000,2137.000
2111.000,2099.000,2137.000
2159.000,2102.000,2129.000
2113.000,2140.000,2115.000
2127.000,2129.000,2115.000
2087.000,2117.000,2108.000
2103.000,2125.000,2093.000
2127.000,2085.000,2093.000
2091.000,2094.000,2107.000
2100.000,2058.000,2091.000
2082.000,2073.000,2075.000
2095.000,2092.000,2100.000
2075.000,2091.000,2093.000
2061.000,2108.000,2080.000
2063.000,2072.000,2068.000
2082.000,2079.000,2069.000
2103.000,2058.000,2075.000
2070.000,2058.000,2072.000
2066.000,2097.000,2085.000
2047.000,2075.000,2048.000
2078.000,2071.000,2070.000
2071.000,2081.000,2064.000
2043.000,2066.000,2088.000
2069.000,2061.000,2062.000
2072.000,2061.000,2075.000
2055.000,2062.000,2068.000
2085.000,2087.000,2069.000
2050.000,2067.000,2068.000
2064.000,2092.000,2084.000
2075.000,2076.000,2050.000
2036.000,2037.000,2077.000
2054.000,2086.000,2065.000
2062.000,2075.000,2067.000
2103.000,2069.000,2042.000
2050.000,2083.000,2082.000
2007.000,2072.000,2075.000
2039.000,2073.000,2071.000
2072.000,2063.000,2062.000
2045.000,2075.000,2050.000
2060.000,2080.000,2055.000
2040.000,2052.000,2025.000
2053.000,2053.000,2058.000
2060.000,2060.000,2035.000
2037.000,2036.000,2046.000
2045.000,2005.000,2020.000
2028.000,2005.000,2091.000
2028.000,2039.000,2016.000
2022.000,2006.000,2043.000
2052.000,1985.000,1979.000
2002.000,2008.000,2022.000
1991.000,2033.000,2002.000
2006.000,2028.000,1987.000
1987.000,2023.000,1991.000
2007.000,2007.000,1982.000
1995.000,1981.000,2003.000
1994.000,1972.000,1992.000
2006.000,2022.000,1978.000
1974.000,1973.000,1959.000
1993.000,1951.000,1989.000
1967.000,1959.000,1966.000
1974.000,1958.000,2005.000
1987.000,1964.000,1954.000
1948.000,1962.000,1983.000
1957.000,1959.000,1989.000
1985.000,1957.000,1965.000
1982.000,1979.000,1957.000
1980.000,1944.000,1936.000
1963.000,1947.000,1937.000
1967.000,1961.000,1989.000
1963.000,1956.000,1965.000
1975.000,1969.000,1943.000
1955.000,1977.000,1963.000
1956.000,1953.000,1980.000
1961.000,1962.000,1986.000
1984.000,1972.000,1988.000
1958.000,1971.000,1955.000
1960.000,1952.000,1963.000
1957.000,1953.000,1987.000
1975.000,1963.000,1966.000
1972.000,1961.000,1976.000
1971.000,1969.000,1982.000
1976.000,1965.000,1940.000
1938.000,1939.000,1956.000
1956.000,1963.000,1951.000
1943.000,1951.000,1937.000
1945.000,1973.000,1921.000
1933.000,1962.000,1934.000
1951.000,1943.000,1931.000
1927.000,1907.000,1923.000
1935.000,1924.000,1910.000
1919.000,1927.000,1957.000
1929.000,1918.000,1919.000
1919.000,1925.000,1914.000
1924.000,1915.000,1919.000
1937.000,1908.000,1903.000
1905.000,1877.000,1904.000
1893.000,1907.000,1903.000
1888.000,1900.000,1890.000
1873.000,1880.000,1916.000
1866.000,1868.000,1883.000
1912.000,1862.000,1905.000
1888.000,1875.000,1887.000
1874.000,1921.000,1884.000
1884.000,1888.000,1886.000
1897.000,1894.000,1892.000
1905.000,1917.000,1886.000
1895.000,1896.000,1898.000
1894.000,1923.000,1885.000
1913.000,1891.000,1896.000
1921.000,1863.000,1915.000
1916.000,1907.000,1895.000
1910.000,1897.000,1894.000
1898.000,1909.000,1921.000
1889.000,1924.000,1921.000
1901.000,1915.000,1904.000
1920.000,1883.000,1882.000
1880.000,1894.000,1922.000
1907.000,1914.000,1898.000
1870.000,1896.000,1909.000
1868.000,1886.000,1890.000
1895.000,1859.000,1863.000
1879.000,1867.000,1883.000
1901.000,1889.000,1896.000
1891.000,1879.000,1884.000
1860.000,1883.000,1877.000
1892.000,1864.000,1858.000
1883.000,1851.000,1859.000
1841.000,1837.000,1865.000
1852.000,1881.000,1862.000
1871.000,1854.000,1873.000
1850.000,1870.000,1868.000
1871.000,1865.000,1835.000
1845.000,1855.000,1843.000
1835.000,1846.000,1868.000
1860.000,1848.000,1836.000
1808.000,1867.000,1876.000
1854.000,1827.000,1837.000
1821.000,1846.000,1825.000
1839.000,1841.000,1842.000
1862.000,1861.000,1829.000
1832.000,1834.000,1859.000
1860.000,1839.000,1838.000
1840.000,1867.000,1854.000
1864.000,1861.000,1832.000
1852.000,1855.000,1904.000
1845.000,1845.000,1871.000
1849.000,1836.000,1876.000
1851.000,1819.000,1874.000
1845.000,1852.000,1861.000
1857.000,1876.000,1846.000
1850.000,1871.000,1850.000
1843.000,1834.000,1860.000
1866.000,1862.000,1851.000
1817.000,1847.000,1855.000
1822.000,1846.000,1840.000
1838.000,1847.000,1841.000
1862.000,1851.000,1832.000
1847.000,1834.000,1845.000
1805.000,1805.000,1842.000
1816.000,1820.000,1842.000
1814.000,1831.000,1819.000
1834.000,1825.000,1824.000
1804.000,1844.000,1817.000
1845.000,1859.000,1792.000
1818.000,1819.000,1791.000
1792.000,1801.000,1806.000
1794.000,1820.000,1829.000
1793.000,1796.000,1799.000
1785.000,1806.000,1798.000
1785.000,1772.000,1805.000
1809.000,1806.000,1805.000
1815.000,1781.000,1782.000
1773.000,1796.000,1795.000
1814.000,1795.000,1800.000
1795.000,1800.000,1791.000
1798.000,1831.000,1780.000
1801.000,1799.000,1806.000
1817.000,1795.000,1789.000
1787.000,1787.000,1803.000
1805.000,1788.000,1800.000
1758.000,1797.000,1806.000
1809.000,1801.000,1811.000
1816.000,1785.000,1802.000
1795.000,1811.000,1806.000
1825.000,1797.000,1802.000
1795.000,1821.000,1823.000
1790.000,1781.000,1819.000
1801.000,1798.000,1804.000
1785.000,1813.000,1791.000
1801.000,1789.000,1808.000
1779.000,1780.000,1786.000
1804.000,1805.000,1810.000
1796.000,1795.000,1789.000
1810.000,1778.000,1767.000
1782.000,1778.000,1773.000
1790.000,1787.000,1756.000
1791.000,1794.000,1762.000
1764.000,1778.000,1774.000
1780.000,1784.000,1784.000
1772.000,1749.000,1751.000
1755.000,1753.000,1764.000
1728.000,1762.000,1745.000
1776.000,1768.000,1772.000
1755.000,1777.000,1756.000
1755.000,1791.000,1760.000
1765.000,1742.000,1759.000
1796.000,1730.000,1737.000
1755.000,1761.000,1732.000
1762.000,1751.000,1738.000
1738.000,1747.000,1746.000
1696.000,1739.000,1723.000
1729.000,1714.000,1726.000
1730.000,1725.000,1731.000
1748.000,1742.000,1738.000
1723.000,1714.000,1741.000
1728.000,1720.000,1732.000
1747.000,1723.000,1734.000
1708.000,1732.000,1731.000
1718.000,1743.000,1728.000
1715.000,1709.000,1728.000
1706.000,1727.000,1719.000
1717.000,1721.000,1749.000
1740.000,1734.000,1725.000
1734.000,1724.000,1746.000
1740.000,1727.000,1738.000
1721.000,1759.000,1756.000
1779.000,1698.000,1728.000
1724.000,1729.000,1715.000
1735.000,1711.000,1725.000
1744.000,1700.000,1752.000
1733.000,1724.000,1734.000
1732.000,1726.000,1721.000
1731.000,1727.000,1728.000
1729.000,1711.000,1738.000
1703.000,1725.000,1729.000
1704.000,1730.000,1714.000
1698.000,1734.000,1699.000
1712.000,1710.000,1719.000
1715.000,1712.000,1725.000
1706.000,1720.000,1701.000
1709.000,1725.000,1707.000
1687.000,1709.000,1715.000
1707.000,1702.000,1715.000
1707.000,1702.000,1703.000
1701.000,1706.000,1690.000
1714.000,1675.000,1685.000
1699.000,1689.000,1697.000
1686.000,1692.000,1681.000
1679.000,1688.000,1695.000
1663.000,1681.000,1686.000
1676.000,1681.000,1678.000
1679.000,1654.000,1682.000
1655.000,1684.000,1664.000
1666.000,1688.000,1650.000
1659.000,1675.000,1650.000
1649.000,1706.000,1672.000
1656.000,1660.000,1660.000
1665.000,1648.000,1678.000
1651.000,1661.000,1651.000
1657.000,1648.000,1663.000
1652.000,1666.000,1664.000
1660.000,1652.000,1673.000
1659.000,1651.000,1661.000
1643.000,1639.000,1670.000
1652.000,1664.000,1658.000
1653.000,1639.000,1662.000
1657.000,1685.000,1666.000
1660.000,1650.000,1668.000
1650.000,1647.000,1651.000
1657.000,1673.000,1660.000
1658.000,1655.000,1677.000
1654.000,1660.000,1634.000
1675.000,1672.000,1676.000
1673.000,1658.000,1670.000
1670.000,1663.000,1649.000
1674.000,1669.000,1680.000
1650.000,1679.000,1678.000
1662.000,1660.000,1664.000
1672.000,1648.000,1655.000
1663.000,1673.000,1672.000
1690.000,1636.000,1661.000
1656.000,1628.000,1632.000
1647.000,1639.000,1624.000
1651.000,1653.000,1626.000
1650.000,1665.000,1635.000
1646.000,1619.000,1651.000
1639.000,1651.000,1648.000
1642.000,1651.000,1629.000
1636.000,1626.000,1648.000
1629.000,1628.000,1647.000
1633.000,1626.000,1638.000
1614.000,1631.000,1620.000
1623.000,1618.000,1611.000
1606.000,1622.000,1621.000
1600.000,1639.000,1614.000
1607.000,1612.000,1600.000
1631.000,1626.000,1598.000
1594.000,1601.000,1606.000
1600.000,1600.000,1609.000
1622.000,1586.000,1596.000
1587.000,1596.000,1581.000
1595.000,1618.000,1603.000
1582.000,1568.000,1592.000
1582.000,1586.000,1589.000
1589.000,1589.000,1594.000
1590.000,1599.000,1602.000
1563.000,1594.000,1582.000
1601.000,1587.000,1586.000
1589.000,1583.000,1580.000
1588.000,1589.000,1589.000
1609.000,1595.000,1575.000
1583.000,1595.000,1575.000
1576.000,1574.000,1571.000
1572.000,1589.000,1591.000
1581.000,1575.000,1580.000
1589.000,1569.000,1582.000
1587.000,1601.000,1579.000
1579.000,1566.000,1595.000
1589.000,1559.000,1585.000
1579.000,1569.000,1586.000
1582.000,1578.000,1579.000
1571.000,1585.000,1566.000
1587.000,1609.000,1578.000
1556.000,1563.000,1589.000
1571.000,1596.000,1574.000
1568.000,1585.000,1564.000
1569.000,1567.000,1583.000
1553.000,1595.000,1563.000
1584.000,1570.000,1565.000
1568.000,1578.000,1560.000
1568.000,1572.000,1583.000
1588.000,1555.000,1568.000
1579.000,1542.000,1546.000
1561.000,1567.000,1569.000
1536.000,1565.000,1569.000
1550.000,1550.000,1555.000
1540.000,1551.000,1550.000
1556.000,1548.000,1556.000
1533.000,1547.000,1549.000
1551.000,1535.000,1538.000
1539.000,1544.000,1564.000
1527.000,1549.000,1550.000
1525.000,1554.000,1531.000
1538.000,1531.000,1536.000
1531.000,1527.000,1505.000
1533.000,1536.000,1528.000
1534.000,1517.000,1498.000
1516.000,1542.000,1541.000
1517.000,1513.000,1523.000
1505.000,1515.000,1527.000
1519.000,1521.000,1506.000
1501.000,1513.000,1505.000
1506.000,1504.000,1511.000
1509.000,1496.000,1515.000
1499.000,1507.000,1502.000
1507.000,1515.000,1528.000
1510.000,1492.000,1503.000
1504.000,1501.000,1501.000
1523.000,1503.000,1504.000
1497.000,1491.000,1496.000
1489.000,1495.000,1498.000
1492.000,1522.000,1494.000
1483.000,1514.000,1507.000
1509.000,1518.000,1502.000
1498.000,1498.000,1512.000
1506.000,1497.000,1505.000
1498.000,1494.000,1486.000
1486.000,1495.000,1483.000
1479.000,1496.000,1489.000
1500.000,1492.000,1491.000
1501.000,1504.000,1493.000
1494.000,1495.000,1468.000
1492.000,1509.000,1495.000
1479.000,1483.000,1497.000
1487.000,1511.000,1490.000
1481.000,1490.000,1494.000
1500.000,1468.000,1470.000
1465.000,1475.000,1487.000
1483.000,1476.000,1473.000
1473.000,1476.000,1471.000
1498.000,1474.000,1482.000
1479.000,1470.000,1459.000
1480.000,1466.000,1475.000
1455.000,1469.000,1482.000
1463.000,1456.000,1467.000
1466.000,1461.000,1461.000
1461.000,1461.000,1448.000
1471.000,1443.000,1464.000
1453.000,1445.000,1453.000
1451.000,1446.000,1441.000
1452.000,1442.000,1460.000
