Focus Mode,Read Mode,Exposure Time (sec),Number of Frames,Start Y,End Y,Date,Time,Position (microns)
Single Acquisition,Spectrum,30.000000,3,105,125,12/11/2020,5:20:56 PM,0.000000,0.000000,40.010000,

1289.000,1286.000,1275.000
1281.000,1281.000,1280.000
1295.000,1279.000,1277.000
1284.000,1287.000,1283.000
1292.000,1289.000,1276.000
1289.000,1287.000,1289.000
1291.000,1297.000,1276.000
1285.000,1294.000,1285.000
1283.000,1290.000,1291.000
1294.000,1285.000,1299.000
1292.000,1283.000,1297.000
1298.000,1292.000,1293.000
1299.000,1304.000,1292.000
1289.000,1295.000,1287.000
1297.000,1304.000,1310.000
1305.000,1303.000,1304.000
1302.000,1294.000,1301.000
1307.000,1298.000,1311.000
1306.000,1305.000,1313.000
1313.000,1310.000,1304.000
1319.000,1318.000,1320.000
1317.000,1314.000,1321.000
1332.000,1326.000,1311.000
1326.000,1322.000,1325.000
1327.000,1326.000,1327.000
1332.000,1342.000,1328.000
1326.000,1335.000,1312.000
1323.000,1343.000,1343.000
1344.000,1330.000,1349.000
1348.000,1346.000,1346.000
1334.000,1345.000,1349.000
1357.000,1359.000,1355.000
1349.000,1359.000,1361.000
1362.000,1352.000,1345.000
1369.000,1361.000,1355.000
1362.000,1365.000,1363.000
1366.000,1362.000,1363.000
1389.000,1371.000,1386.000
1381.000,1383.000,1374.000
1371.000,1383.000,1396.000
1399.000,1387.000,1391.000
1396.000,1397.000,1390.000
1415.000,1403.000,1397.000
1412.000,1410.000,1404.000
1425.000,1407.000,1415.000
1421.000,1427.000,1426.000
1443.000,1428.000,1419.000
1451.000,1430.000,1425.000
1453.000,1446.000,1444.000
1453.000,1455.000,1466.000
1479.000,1462.000,1458.000
1470.000,1481.000,1464.000
1476.000,1482.000,1492.000
1507.000,1494.000,1486.000
1507.000,1491.000,1494.000
1509.000,1512.000,1507.000
1517.000,1516.000,1533.000
1520.000,1533.000,1539.000
1536.000,1541.000,1536.000
1534.000,1548.000,1538.000
1560.000,1553.000,1574.000
1552.000,1551.000,1561.000
1596.000,1585.000,1563.000
1580.000,1566.000,1582.000
1615.000,1589.000,1583.000
1598.000,1601.000,1613.000
1611.000,1625.000,1612.000
1631.000,1651.000,1622.000
1664.000,1667.000,1680.000
1704.000,1685.000,1718.000
1708.000,1718.000,1725.000
1741.000,1737.000,1726.000
1765.000,1751.000,1757.000
1781.000,1775.000,1795.000
1821.000,1839.000,1813.000
1868.000,1843.000,1857.000
1894.000,1873.000,1863.000
1896.000,1943.000,1951.000
1934.000,1954.000,1946.000
2002.000,1975.000,1990.000
2006.000,2020.000,1997.000
2055.000,2022.000,2015.000
2045.000,2067.000,2082.000
2046.000,2058.000,2137.000
2068.000,2072.000,2079.000
2118.000,2141.000,2122.000
2136.000,2162.000,2184.000
2158.000,2183.000,2212.000
2214.000,2236.000,2251.000
2255.000,2247.000,2276.000
2262.000,2311.000,2303.000
2325.000,2357.000,2383.000
2406.000,2432.000,2460.000
2518.000,2541.000,2541.000
2623.000,2687.000,2651.000
2729.000,2734.000,2790.000
2896.000,2953.000,2953.000
3027.000,3115.000,3203.000
3242.000,3372.000,3466.000
3606.000,3661.000,3766.000
3873.000,4072.000,4172.000
4268.000,4434.000,4587.000
4693.000,4919.000,5118.000
5078.000,5390.000,5559.000
5462.000,5820.000,5953.000
5658.000,6039.000,6244.000
5770.000,6219.000,6416.000
5874.000,6300.000,6558.000
5821.000,6357.000,6546.000
5825.000,6246.000,6447.000
5639.000,5981.000,6238.000
5432.000,5841.000,5963.000
5139.000,5316.000,5443.000
4903.000,5043.000,5167.000
4753.000,4909.000,4935.000
4743.000,4802.000,4838.000
4730.000,4728.000,4875.000
4835.000,4931.000,4935.000
5090.000,5097.000,5184.000
5542.000,5567.000,5577.000
6294.000,6240.000,6193.000
7670.000,7406.000,7455.000
61569.000,61641.000,61561.000
62240.000,62248.000,62244.000
62162.000,62173.000,62160.000
62083.000,62093.000,62081.000
62105.000,62110.000,62104.000
62106.000,62107.000,62102.000
62070.000,62079.000,62068.000
62077.000,62079.000,62074.000
62079.000,62085.000,62080.000
62076.000,62073.000,62072.000
62067.000,62067.000,62066.000
62067.000,62076.000,62063.000
62069.000,62071.000,62062.000
62062.000,62063.000,62067.000
62060.000,62065.000,62070.000
62068.000,62068.000,62063.000
62065.000,62068.000,62058.000
62063.000,62066.000,62062.000
62064.000,62064.000,62061.000
62065.000,62067.000,62061.000
62061.000,62069.000,62060.000
62062.000,62068.000,62062.000
62062.000,62062.000,62059.000
62067.000,62064.000,62058.000
62061.000,62066.000,62056.000
62060.000,62068.000,62064.000
62056.000,62058.000,62060.000
62055.000,62070.000,62057.000
62059.000,62061.000,62056.000
62063.000,62060.000,62060.000
62054.000,62057.000,62055.000
62059.000,62060.000,62064.000
62056.000,62062.000,62053.000
62058.000,62061.000,62054.000
62059.000,62067.000,62058.000
62057.000,62058.000,62061.000
62063.000,62065.000,62059.000
62062.000,62062.000,62056.000
62053.000,62064.000,62056.000
62060.000,62058.000,62060.000
62053.000,62061.000,62058.000
62058.000,62061.000,62057.000
62059.000,62060.000,62061.000
62059.000,62062.000,62061.000
62052.000,62062.000,62053.000
62058.000,62059.000,62058.000
62062.000,62061.000,62055.000
62057.000,62063.000,62057.000
62058.000,62060.000,62054.000
62059.000,62066.000,62061.000
62057.000,62058.000,62057.000
62064.000,62062.000,62057.000
62060.000,62062.000,62057.000
62061.000,62065.000,62061.000
62059.000,62062.000,62055.000
62062.000,62061.000,62060.000
62056.000,62063.000,62053.000
62061.000,62064.000,62060.000
62058.000,62060.000,62060.000
62063.000,62064.000,62060.000
62056.000,62066.000,62061.000
62064.000,62070.000,62059.000
62057.000,62063.000,62057.000
62055.000,62067.000,62062.000
62057.000,62068.000,62057.000
62060.000,62066.000,62064.000
62061.000,62066.000,62069.000
62065.000,62094.000,62068.000
62094.000,62124.000,62102.000
62126.000,6772.000,65184.000
4955.000,1544.000,1636.000
1557.000,1530.000,1575.000
1526.000,1526.000,1523.000
1542.000,1520.000,1533.000
1515.000,1508.000,1506.000
1509.000,1512.000,1513.000
1502.000,1509.000,1509.000
1472.000,1480.000,1477.000
1486.000,1477.000,1490.000
1467.000,1469.000,1482.000
1473.000,1470.000,1467.000
1463.000,1470.000,1463.000
1467.000,1454.000,1467.000
1454.000,1446.000,1482.000
1451.000,1447.000,1442.000
1453.000,1432.000,1438.000
1456.000,1441.000,1441.000
1431.000,1438.000,1440.000
1434.000,1443.000,1436.000
1441.000,1427.000,1423.000
1436.000,1429.000,1417.000
1428.000,1408.000,1389.000
1419.000,1412.000,1413.000
1423.000,1408.000,1405.000
1411.000,1402.000,1403.000
1416.000,1408.000,1381.000
1408.000,1401.000,1401.000
1401.000,1395.000,1385.000
1394.000,1391.000,1395.000
1395.000,1373.000,1407.000
1395.000,1385.000,1385.000
1387.000,1397.000,1392.000
1382.000,1376.000,1387.000
1377.000,1391.000,1384.000
1378.000,1369.000,1380.000
1387.000,1378.000,1383.000
1375.000,1369.000,1368.000
1373.000,1371.000,1385.000
1374.000,1380.000,1371.000
1372.000,1371.000,1362.000
1362.000,1360.000,1371.000
1376.000,1370.000,1371.000
1372.000,1377.000,1356.000
1368.000,1353.000,1375.000
1362.000,1377.000,1353.000
1358.000,1362.000,1360.000
1364.000,1342.000,1354.000
1351.000,1346.000,1354.000
1351.000,1353.000,1352.000
1347.000,1347.000,1372.000
1365.000,1364.000,1348.000
1337.000,1357.000,1355.000
1348.000,1344.000,1355.000
1343.000,1335.000,1339.000
1356.000,1341.000,1343.000
1335.000,1349.000,1336.000
1344.000,1324.000,1335.000
1346.000,1342.000,1333.000
1330.000,1343.000,1334.000
1354.000,1343.000,1332.000
1337.000,1339.000,1337.000
1348.000,1334.000,1331.000
1330.000,1333.000,1343.000
1327.000,1335.000,1329.000
1332.000,1337.000,1330.000
1333.000,1336.000,1338.000
1331.000,1331.000,1321.000
1333.000,1327.000,1325.000
1329.000,1320.000,1320.000
1331.000,1325.000,1329.000
1328.000,1327.000,1325.000
1323.000,1338.000,1325.000
1330.000,1324.000,1331.000
1319.000,1327.000,1315.000
1325.000,1329.000,1313.000
1320.000,1315.000,1331.000
1315.000,1322.000,1325.000
1329.000,1311.000,1328.000
1315.000,1322.000,1311.000
1319.000,1321.000,1326.000
1313.000,1309.000,1314.000
1327.000,1312.000,1329.000
1326.000,1320.000,1324.000
1320.000,1314.000,1307.000
1323.000,1316.000,1312.000
1327.000,1327.000,1327.000
1321.000,1319.000,1320.000
1314.000,1317.000,1318.000
1317.000,1320.000,1325.000
1316.000,1309.000,1319.000
1320.000,1322.000,1314.000
1313.000,1319.000,1330.000
1323.000,1313.000,1323.000
1332.000,1331.000,1325.000
1331.000,1322.000,1335.000
1318.000,1327.000,1328.000
1333.000,1335.000,1333.000
1351.000,1335.000,1338.000
1342.000,1343.000,1345.000
1349.000,1346.000,1353.000
1342.000,1364.000,1354.000
1376.000,1348.000,1353.000
1383.000,1363.000,1367.000
1398.000,1381.000,1377.000
1382.000,1409.000,1385.000
1417.000,1407.000,1411.000
1418.000,1414.000,1424.000
1455.000,1443.000,1457.000
1469.000,1456.000,1449.000
1495.000,1494.000,1489.000
1514.000,1510.000,1534.000
1583.000,1588.000,1579.000
1626.000,1626.000,1596.000
1688.000,1662.000,1670.000
1746.000,1760.000,1762.000
1821.000,1828.000,1796.000
1928.000,1911.000,1927.000
2018.000,2036.000,2021.000
2136.000,2133.000,2133.000
2322.000,2308.000,2278.000
2456.000,2475.000,2484.000
2667.000,2637.000,2667.000
2942.000,2886.000,2900.000
3133.000,3166.000,3134.000
3474.000,3357.000,3389.000
3722.000,3745.000,3726.000
4012.000,4006.000,4055.000
4315.000,4372.000,4311.000
4667.000,4590.000,4667.000
4927.000,4939.000,4892.000
5189.000,5225.000,5204.000
5546.000,5545.000,5476.000
5779.000,5710.000,5711.000
5957.000,5924.000,5972.000
6179.000,6114.000,6098.000
6364.000,6283.000,6266.000
6430.000,6442.000,6313.000
6571.000,6489.000,6417.000
6580.000,6519.000,6493.000
6550.000,6523.000,6577.000
6578.000,6541.000,6522.000
6659.000,6568.000,6550.000
6667.000,6584.000,6545.000
6621.000,6628.000,6600.000
6733.000,6585.000,6549.000
6620.000,6637.000,6586.000
6709.000,6615.000,6605.000
6653.000,6632.000,6617.000
6658.000,6649.000,6585.000
6662.000,6607.000,6654.000
6688.000,6568.000,6701.000
6685.000,6612.000,6699.000
6659.000,6586.000,6625.000
6719.000,6660.000,6616.000
6707.000,6653.000,6595.000
6741.000,6663.000,6542.000
6690.000,6672.000,6679.000
6692.000,6642.000,6609.000
6610.000,6608.000,6609.000
6703.000,6641.000,6674.000
6708.000,6625.000,6537.000
6695.000,6662.000,6601.000
6751.000,6639.000,6634.000
6690.000,6680.000,6615.000
6705.000,6568.000,6715.000
6662.000,6666.000,6601.000
6624.000,6587.000,6647.000
6730.000,6616.000,6510.000
6705.000,6686.000,6544.000
6717.000,6557.000,6633.000
6722.000,6638.000,6639.000
6726.000,6735.000,6552.000
6645.000,6690.000,6620.000
6685.000,6624.000,6628.000
6737.000,6706.000,6664.000
6781.000,6585.000,6616.000
6683.000,6621.000,6619.000
6687.000,6691.000,6659.000
6705.000,6611.000,6710.000
6834.000,6671.000,6682.000
6735.000,6670.000,6719.000
6690.000,6719.000,6630.000
6811.000,6756.000,6603.000
6727.000,6727.000,6664.000
6707.000,6685.000,6664.000
6788.000,6724.000,6709.000
6828.000,6726.000,6759.000
6870.000,6734.000,6749.000
6889.000,6838.000,6823.000
6859.000,6828.000,6860.000
6928.000,6913.000,6836.000
6885.000,6840.000,6727.000
6960.000,6836.000,6765.000
6988.000,6850.000,6776.000
6847.000,6843.000,6771.000
6992.000,6935.000,6916.000
6898.000,6931.000,6864.000
7000.000,6909.000,6920.000
6924.000,6873.000,6888.000
6913.000,6956.000,6804.000
6940.000,6893.000,6846.000
6947.000,6909.000,6821.000
6960.000,6975.000,6896.000
7041.000,6916.000,6959.000
6992.000,6939.000,6927.000
7047.000,6964.000,7075.000
7065.000,6933.000,6979.000
7036.000,7005.000,6982.000
6991.000,7008.000,6952.000
7035.000,6997.000,6931.000
6979.000,6955.000,6867.000
6934.000,6968.000,6956.000
7069.000,6922.000,6916.000
6987.000,6947.000,6908.000
6977.000,7001.000,6890.000
7022.000,6898.000,6866.000
6990.000,7002.000,6947.000
6997.000,6969.000,6927.000
7096.000,6901.000,6962.000
7008.000,6902.000,6858.000
6950.000,6948.000,6899.000
7041.000,6913.000,6959.000
7032.000,6975.000,6909.000
6900.000,6933.000,6912.000
7029.000,6973.000,6942.000
7063.000,6951.000,6907.000
7094.000,6904.000,6950.000
7038.000,6907.000,6897.000
7040.000,6988.000,6963.000
7033.000,6956.000,6936.000
7068.000,7060.000,6924.000
7106.000,7028.000,7056.000
7121.000,7024.000,6967.000
7035.000,7093.000,6959.000
7069.000,7132.000,7101.000
7101.000,7023.000,7052.000
7067.000,7017.000,6995.000
7194.000,7075.000,7025.000
7096.000,7059.000,7015.000
7101.000,7128.000,7037.000
7109.000,7057.000,7119.000
7090.000,7000.000,6976.000
7130.000,7092.000,7007.000
7200.000,7150.000,7012.000
7182.000,7129.000,7146.000
7221.000,7129.000,7147.000
7156.000,7097.000,7086.000
7137.000,7110.000,7053.000
7236.000,7104.000,7128.000
7118.000,7091.000,6983.000
7150.000,7109.000,7102.000
7221.000,7124.000,7073.000
7180.000,7088.000,7110.000
7153.000,7206.000,7077.000
7221.000,7168.000,7135.000
7348.000,7245.000,7137.000
7193.000,7148.000,7221.000
7254.000,7139.000,7196.000
7309.000,7187.000,7227.000
7306.000,7238.000,7219.000
7269.000,7183.000,7126.000
7238.000,7208.000,7148.000
7252.000,7211.000,7173.000
7197.000,7191.000,7141.000
7247.000,7163.000,7203.000
7231.000,7222.000,7166.000
7255.000,7224.000,7216.000
7125.000,7210.000,7139.000
7155.000,7209.000,7101.000
7283.000,7307.000,7232.000
7157.000,7254.000,7201.000
7236.000,7194.000,7145.000
7337.000,7207.000,7122.000
7221.000,7189.000,7167.000
7318.000,7191.000,7189.000
7299.000,7167.000,7137.000
7189.000,7266.000,7115.000
7360.000,7192.000,7206.000
7250.000,7203.000,7116.000
7268.000,7174.000,7131.000
7227.000,7172.000,7214.000
7269.000,7256.000,7098.000
7345.000,7240.000,7152.000
7288.000,7184.000,7211.000
7311.000,7177.000,7192.000
7291.000,7225.000,7171.000
7313.000,7223.000,7204.000
7351.000,7275.000,7155.000
7287.000,7233.000,7248.000
7188.000,7308.000,7271.000
7323.000,7199.000,7181.000
7219.000,7227.000,7148.000
7291.000,7257.000,7165.000
7281.000,7301.000,7226.000
7300.000,7259.000,7269.000
7368.000,7245.000,7245.000
7364.000,7207.000,7251.000
7390.000,7272.000,7288.000
7401.000,7321.000,7265.000
7368.000,7300.000,7255.000
7298.000,7324.000,7203.000
7343.000,7264.000,7315.000
7276.000,7293.000,7313.000
7269.000,7259.000,7262.000
7353.000,7241.000,7249.000
7371.000,7290.000,7288.000
7293.000,7252.000,7239.000
7343.000,7273.000,7285.000
7351.000,7278.000,7251.000
7309.000,7279.000,7188.000
7340.000,7205.000,7213.000
7303.000,7330.000,7181.000
7439.000,7400.000,7239.000
7348.000,7330.000,7331.000
7470.000,7363.000,7346.000
7419.000,7349.000,7248.000
7441.000,7383.000,7331.000
7377.000,7357.000,7335.000
7286.000,7356.000,7277.000
7351.000,7340.000,7225.000
7316.000,7304.000,7289.000
7351.000,7380.000,7270.000
7359.000,7326.000,7319.000
7390.000,7263.000,7241.000
7394.000,7235.000,7285.000
7377.000,7341.000,7217.000
7306.000,7267.000,7303.000
7278.000,7294.000,7277.000
7324.000,7257.000,7247.000
7373.000,7374.000,7262.000
7351.000,7240.000,7280.000
7407.000,7343.000,7302.000
7277.000,7307.000,7198.000
7286.000,7196.000,7274.000
7262.000,7241.000,7232.000
7390.000,7284.000,7305.000
7383.000,7330.000,7246.000
7342.000,7267.000,7255.000
7403.000,7255.000,7300.000
7354.000,7330.000,7272.000
7364.000,7363.000,7231.000
7327.000,7307.000,7206.000
7321.000,7258.000,7197.000
7286.000,7290.000,7275.000
7425.000,7319.000,7296.000
7422.000,7315.000,7323.000
7372.000,7302.000,7303.000
7338.000,7227.000,7216.000
7385.000,7300.000,7192.000
7329.000,7280.000,7261.000
7381.000,7303.000,7306.000
7318.000,7271.000,7244.000
7375.000,7315.000,7243.000
7383.000,7299.000,7185.000
7446.000,7255.000,7241.000
7386.000,7269.000,7243.000
7411.000,7359.000,7286.000
7395.000,7362.000,7265.000
7403.000,7312.000,7342.000
7379.000,7296.000,7300.000
7431.000,7414.000,7277.000
7328.000,7300.000,7264.000
7371.000,7349.000,7335.000
7335.000,7331.000,7322.000
7376.000,7383.000,7314.000
7388.000,7307.000,7306.000
7346.000,7319.000,7244.000
7466.000,7325.000,7319.000
7455.000,7440.000,7325.000
7464.000,7429.000,7441.000
7450.000,7297.000,7328.000
7436.000,7392.000,7354.000
7468.000,7387.000,7332.000
7435.000,7302.000,7255.000
7436.000,7377.000,7293.000
7472.000,7426.000,7426.000
7532.000,7403.000,7455.000
7478.000,7370.000,7394.000
7447.000,7378.000,7340.000
7449.000,7447.000,7386.000
7433.000,7468.000,7331.000
7548.000,7373.000,7405.000
7396.000,7407.000,7423.000
7466.000,7328.000,7365.000
7527.000,7325.000,7409.000
7503.000,7517.000,7416.000
7443.000,7445.000,7418.000
7443.000,7358.000,7377.000
7340.000,7394.000,7288.000
7356.000,7325.000,7370.000
7407.000,7316.000,7415.000
7356.000,7286.000,7263.000
7459.000,7371.000,7347.000
7421.000,7364.000,7364.000
7389.000,7330.000,7349.000
7355.000,7417.000,7296.000
7409.000,7402.000,7389.000
7450.000,7431.000,7419.000
7464.000,7422.000,7383.000
7491.000,7403.000,7351.000
7403.000,7354.000,7416.000
7514.000,7426.000,7295.000
7426.000,7397.000,7265.000
7477.000,7461.000,7273.000
7402.000,7292.000,7284.000
7469.000,7382.000,7269.000
7482.000,7300.000,7192.000
7417.000,7290.000,7273.000
7375.000,7338.000,7323.000
7352.000,7311.000,7255.000
7371.000,7320.000,7283.000
7313.000,7336.000,7244.000
7272.000,7366.000,7271.000
7376.000,7317.000,7258.000
7304.000,7215.000,7286.000
7280.000,7298.000,7224.000
7264.000,7358.000,7240.000
7319.000,7329.000,7340.000
7341.000,7266.000,7248.000
7348.000,7363.000,7300.000
7326.000,7255.000,7242.000
7375.000,7304.000,7327.000
7344.000,7277.000,7265.000
7214.000,7253.000,7247.000
7235.000,7217.000,7234.000
7220.000,7262.000,7236.000
7250.000,7312.000,7207.000
7359.000,7289.000,7255.000
7340.000,7274.000,7294.000
7351.000,7311.000,7220.000
7408.000,7359.000,7311.000
7417.000,7357.000,7335.000
7377.000,7365.000,7264.000
7296.000,7283.000,7277.000
7268.000,7384.000,7275.000
7355.000,7340.000,7279.000
7333.000,7239.000,7349.000
7304.000,7318.000,7299.000
7379.000,7261.000,7221.000
7331.000,7265.000,7266.000
7380.000,7280.000,7172.000
7359.000,7251.000,7319.000
7304.000,7301.000,7160.000
7363.000,7266.000,7239.000
7334.000,7255.000,7255.000
7369.000,7326.000,7339.000
7331.000,7309.000,7263.000
7365.000,7359.000,7370.000
7350.000,7262.000,7285.000
7370.000,7417.000,7350.000
7434.000,7369.000,7361.000
7388.000,7290.000,7289.000
7322.000,7402.000,7277.000
7444.000,7296.000,7265.000
7391.000,7284.000,7228.000
7349.000,7274.000,7246.000
7390.000,7352.000,7286.000
7360.000,7325.000,7273.000
7439.000,7360.000,7344.000
7373.000,7343.000,7362.000
7335.000,7360.000,7285.000
7368.000,7284.000,7225.000
7315.000,7355.000,7222.000
7406.000,7300.000,7211.000
7365.000,7349.000,7254.000
7431.000,7371.000,7270.000
7373.000,7330.000,7377.000
7341.000,7383.000,7375.000
7251.000,7295.000,7325.000
7332.000,7285.000,7312.000
7339.000,7264.000,7291.000
7321.000,7285.000,7306.000
7313.000,7247.000,7260.000
7339.000,7347.000,7142.000
7355.000,7229.000,7307.000
7347.000,7231.000,7257.000
7335.000,7272.000,7255.000
7367.000,7244.000,7244.000
7272.000,7306.000,7332.000
7306.000,7196.000,7256.000
7245.000,7312.000,7248.000
7298.000,7223.000,7255.000
7288.000,7172.000,7169.000
7284.000,7264.000,7297.000
7265.000,7306.000,7270.000
7336.000,7252.000,7207.000
7337.000,7210.000,7327.000
7333.000,7293.000,7187.000
7268.000,7246.000,7304.000
7272.000,7227.000,7203.000
7175.000,7154.000,7273.000
7192.000,7233.000,7296.000
7240.000,7186.000,7278.000
7275.000,7215.000,7217.000
7268.000,7324.000,7328.000
7281.000,7255.000,7208.000
7304.000,7228.000,7198.000
7287.000,7382.000,7235.000
7312.000,7321.000,7209.000
7245.000,7207.000,7243.000
7270.000,7212.000,7275.000
7288.000,7226.000,7123.000
7184.000,7277.000,7182.000
7219.000,7193.000,7163.000
7230.000,7190.000,7125.000
7298.000,7308.000,7140.000
7248.000,7275.000,7185.000
7234.000,7177.000,7203.000
7273.000,7263.000,7152.000
7298.000,7264.000,7281.000
7213.000,7247.000,7096.000
7347.000,7221.000,7234.000
7318.000,7281.000,7226.000
7154.000,7240.000,7162.000
7202.000,7233.000,7213.000
7346.000,7189.000,7241.000
7239.000,7214.000,7268.000
7199.000,7180.000,7213.000
7252.000,7240.000,7152.000
7266.000,7267.000,7270.000
7183.000,7304.000,7236.000
7120.000,7161.000,7227.000
7251.000,7221.000,7231.000
7246.000,7174.000,7211.000
7273.000,7255.000,7231.000
7282.000,7207.000,7170.000
7334.000,7168.000,7205.000
7279.000,7178.000,7160.000
7213.000,7093.000,7114.000
7253.000,7136.000,7152.000
7223.000,7115.000,7191.000
7205.000,7188.000,7068.000
7231.000,7168.000,7163.000
7135.000,7216.000,7103.000
7151.000,7186.000,7172.000
7167.000,7212.000,7128.000
7207.000,7182.000,7143.000
7192.000,7203.000,7129.000
7215.000,7222.000,7174.000
7168.000,7195.000,7202.000
7246.000,7187.000,7247.000
7190.000,7076.000,7163.000
7147.000,7093.000,7129.000
7211.000,7218.000,7151.000
7140.000,7172.000,7121.000
7065.000,7082.000,7137.000
7235.000,7201.000,7077.000
7074.000,7068.000,7171.000
7156.000,7096.000,7039.000
7162.000,7148.000,7057.000
7103.000,7095.000,7095.000
7119.000,7140.000,7112.000
7133.000,7097.000,7084.000
7176.000,6985.000,7102.000
7124.000,7075.000,7148.000
7195.000,7216.000,7193.000
7042.000,7086.000,7002.000
7178.000,7115.000,7098.000
7217.000,7116.000,7128.000
7175.000,7099.000,7089.000
7186.000,7118.000,7060.000
7219.000,7147.000,7237.000
7134.000,7057.000,7052.000
7139.000,7033.000,7067.000
7132.000,7089.000,7183.000
7155.000,7193.000,7142.000
7139.000,7139.000,7081.000
7109.000,7115.000,7033.000
7115.000,7055.000,7134.000
7131.000,6991.000,7054.000
7201.000,7024.000,7081.000
7191.000,7061.000,7114.000
7139.000,7083.000,7052.000
7119.000,7151.000,7118.000
7138.000,7091.000,6973.000
7006.000,7099.000,7143.000
7179.000,7162.000,7113.000
7052.000,7080.000,7034.000
7074.000,7051.000,7090.000
7100.000,7028.000,7111.000
7068.000,7064.000,7123.000
7171.000,7190.000,7101.000
7108.000,7043.000,7060.000
7115.000,7168.000,7124.000
7139.000,7119.000,7029.000
7142.000,7118.000,7110.000
7215.000,7090.000,7158.000
7127.000,7076.000,7069.000
7106.000,7125.000,7096.000
7128.000,7174.000,7139.000
7061.000,7098.000,7051.000
7139.000,7183.000,7135.000
7198.000,7189.000,7105.000
7192.000,7128.000,7194.000
7153.000,7171.000,7121.000
7249.000,7159.000,7174.000
7152.000,7212.000,7107.000
7293.000,7224.000,7267.000
7248.000,7181.000,7187.000
7156.000,7104.000,7152.000
7158.000,7144.000,7172.000
7187.000,7144.000,7117.000
7099.000,7076.000,7176.000
7144.000,7172.000,7104.000
7156.000,7097.000,7027.000
7121.000,7173.000,7155.000
7212.000,7104.000,7107.000
7113.000,7130.000,7163.000
7030.000,7064.000,7163.000
7114.000,7149.000,6996.000
7177.000,7109.000,7053.000
7038.000,7157.000,7087.000
7163.000,7132.000,7115.000
7123.000,7169.000,7200.000
7169.000,7162.000,7111.000
7052.000,7035.000,7093.000
7099.000,7026.000,7075.000
7115.000,7141.000,7059.000
7028.000,6999.000,7145.000
7093.000,7112.000,7111.000
7069.000,6991.000,7078.000
7090.000,7134.000,6995.000
7178.000,7115.000,7075.000
7110.000,7106.000,7082.000
7208.000,7140.000,7008.000
7102.000,7092.000,7146.000
7161.000,7224.000,7204.000
7212.000,7169.000,7146.000
7236.000,7235.000,7208.000
7164.000,7228.000,7227.000
7306.000,7239.000,7227.000
7348.000,7273.000,7290.000
7360.000,7385.000,7364.000
7304.000,7256.000,7277.000
7334.000,7348.000,7369.000
7378.000,7362.000,7295.000
7300.000,7246.000,7260.000
7145.000,7274.000,7202.000
7160.000,7169.000,7174.000
7141.000,7036.000,7059.000
7145.000,7101.000,7105.000
7085.000,7119.000,7028.000
7102.000,7051.000,6993.000
7037.000,6960.000,7042.000
7127.000,7041.000,6952.000
6994.000,6988.000,6948.000
7033.000,7070.000,7023.000
7058.000,6949.000,7063.000
7076.000,7016.000,6983.000
6998.000,6973.000,6984.000
6905.000,6913.000,6955.000
7009.000,6855.000,6990.000
7003.000,6903.000,6958.000
6933.000,7002.000,6943.000
7054.000,6961.000,6942.000
6994.000,6836.000,6946.000
7005.000,6892.000,6865.000
6941.000,6797.000,7003.000
6922.000,6912.000,6865.000
6935.000,6863.000,6914.000
6946.000,6879.000,6816.000
6993.000,6922.000,6906.000
7068.000,7003.000,7025.000
7032.000,6943.000,6883.000
6872.000,7021.000,6972.000
7003.000,6971.000,6964.000
7017.000,6978.000,7002.000
7012.000,6845.000,6998.000
6878.000,6951.000,7019.000
6892.000,6894.000,6904.000
6913.000,6973.000,6939.000
6980.000,6951.000,6893.000
6965.000,7018.000,6890.000
6906.000,6923.000,6926.000
6930.000,6860.000,6913.000
6906.000,6956.000,6902.000
6936.000,6836.000,6824.000
6847.000,6966.000,6888.000
6864.000,6922.000,6979.000
6989.000,6920.000,6912.000
6988.000,6968.000,6902.000
6902.000,6936.000,6909.000
6954.000,6879.000,6909.000
6981.000,6935.000,6951.000
6934.000,6910.000,6933.000
6896.000,6936.000,6983.000
6869.000,7003.000,6978.000
6859.000,6903.000,6839.000
6932.000,6905.000,6860.000
6900.000,6875.000,6919.000
6911.000,6914.000,6888.000
6857.000,6965.000,6897.000
6858.000,6888.000,6812.000
6825.000,6813.000,6873.000
6931.000,6796.000,6826.000
6843.000,6773.000,6885.000
6858.000,6805.000,6782.000
6818.000,6821.000,6802.000
6866.000,6800.000,6870.000
6878.000,6850.000,6891.000
6871.000,6803.000,6922.000
6871.000,6828.000,6754.000
6849.000,6708.000,6776.000
6805.000,6726.000,6716.000
6736.000,6678.000,6794.000
6855.000,6799.000,6761.000
6767.000,6755.000,6815.000
6776.000,6743.000,6690.000
6643.000,6635.000,6634.000
6763.000,6698.000,6685.000
6672.000,6707.000,6780.000
6896.000,6705.000,6581.000
6703.000,6714.000,6718.000
6687.000,6690.000,6722.000
6749.000,6658.000,6648.000
6722.000,6690.000,6661.000
6801.000,6708.000,6718.000
6635.000,6691.000,6653.000
6686.000,6668.000,6679.000
6778.000,6609.000,6624.000
6684.000,6646.000,6641.000
6669.000,6750.000,6681.000
6730.000,6691.000,6661.000
6769.000,6702.000,6758.000
6782.000,6660.000,6812.000
6691.000,6720.000,6711.000
6696.000,6616.000,6681.000
6700.000,6649.000,6607.000
6588.000,6688.000,6651.000
6630.000,6558.000,6617.000
6599.000,6625.000,6605.000
6643.000,6613.000,6626.000
6687.000,6639.000,6539.000
6653.000,6620.000,6689.000
6651.000,6686.000,6705.000
6699.000,6626.000,6741.000
6608.000,6653.000,6622.000
6603.000,6599.000,6609.000
6600.000,6597.000,6561.000
6633.000,6640.000,6537.000
6658.000,6631.000,6576.000
6688.000,6591.000,6628.000
6584.000,6603.000,6680.000
6543.000,6564.000,6588.000
6624.000,6560.000,6593.000
6625.000,6603.000,6564.000
6612.000,6588.000,6613.000
6649.000,6544.000,6540.000
6668.000,6627.000,6581.000
6600.000,6653.000,6578.000
6575.000,6511.000,6526.000
6548.000,6535.000,6569.000
6547.000,6554.000,6566.000
6604.000,6507.000,6547.000
6539.000,6619.000,6552.000
6561.000,6595.000,6646.000
6553.000,6559.000,6526.000
6609.000,6528.000,6520.000
6524.000,6479.000,6513.000
6537.000,6515.000,6426.000
6563.000,6542.000,6559.000
6506.000,6517.000,6459.000
6525.000,6636.000,6545.000
6608.000,6639.000,6568.000
6596.000,6478.000,6533.000
6541.000,6548.000,6524.000
6563.000,6557.000,6620.000
6579.000,6501.000,6505.000
6502.000,6536.000,6562.000
6518.000,6497.000,6529.000
6464.000,6576.000,6516.000
6575.000,6577.000,6549.000
6518.000,6531.000,6527.000
6485.000,6544.000,6416.000
6497.000,6377.000,6490.000
6479.000,6478.000,6517.000
6500.000,6437.000,6582.000
6500.000,6548.000,6497.000
6530.000,6504.000,6479.000
6514.000,6541.000,6478.000
6455.000,6507.000,6471.000
6497.000,6514.000,6486.000
6493.000,6512.000,6436.000
6482.000,6387.000,6399.000
6527.000,6471.000,6397.000
6503.000,6444.000,6387.000
6491.000,6471.000,6427.000
6348.000,6491.000,6445.000
6422.000,6453.000,6436.000
6435.000,6360.000,6427.000
6412.000,6365.000,6453.000
6357.000,6306.000,6355.000
6306.000,6260.000,6298.000
6315.000,6347.000,6305.000
6355.000,6293.000,6362.000
6316.000,6356.000,6422.000
6308.000,6390.000,6291.000
6344.000,6259.000,6392.000
6301.000,6265.000,6262.000
6325.000,6282.000,6315.000
6303.000,6262.000,6296.000
6364.000,6272.000,6300.000
6281.000,6267.000,6294.000
6242.000,6312.000,6357.000
6283.000,6269.000,6307.000
6255.000,6314.000,6359.000
6276.000,6310.000,6208.000
6322.000,6255.000,6333.000
6319.000,6279.000,6242.000
6339.000,6291.000,6288.000
6317.000,6344.000,6291.000
6258.000,6240.000,6292.000
6318.000,6171.000,6250.000
6156.000,6331.000,6298.000
6329.000,6201.000,6259.000
6249.000,6122.000,6187.000
6244.000,6099.000,6263.000
6170.000,6233.000,6196.000
6208.000,6148.000,6197.000
6222.000,6183.000,6223.000
6236.000,6216.000,6226.000
6191.000,6068.000,6186.000
6160.000,6130.000,6188.000
6209.000,6217.000,6201.000
6192.000,6154.000,6135.000
6139.000,6124.000,6179.000
6135.000,6191.000,6264.000
6169.000,6139.000,6043.000
6102.000,6114.000,6211.000
6225.000,6129.000,6097.000
6080.000,6155.000,6192.000
6102.000,6130.000,6094.000
6133.000,6104.000,6032.000
6132.000,6102.000,6012.000
6061.000,6048.000,6091.000
5939.000,5951.000,5982.000
5994.000,5991.000,6040.000
6080.000,6054.000,5989.000
6081.000,6047.000,5951.000
6018.000,6046.000,5955.000
6063.000,6060.000,6018.000
6006.000,5937.000,5909.000
5911.000,5995.000,5926.000
5884.000,5835.000,5995.000
5924.000,5920.000,5887.000
5834.000,5938.000,5907.000
5856.000,5847.000,5912.000
5894.000,5866.000,5906.000
5783.000,5800.000,5855.000
5864.000,5940.000,5891.000
5841.000,5894.000,5953.000
5894.000,5923.000,5914.000
5865.000,5789.000,5814.000
5839.000,5839.000,5835.000
5870.000,5814.000,5874.000
5878.000,5843.000,5912.000
5839.000,5841.000,5939.000
5898.000,5958.000,5924.000
5955.000,5873.000,5871.000
5792.000,5850.000,5813.000
5844.000,5803.000,5849.000
5879.000,5825.000,5929.000
5753.000,5847.000,5725.000
5817.000,5845.000,5830.000
5744.000,5660.000,5801.000
5753.000,5881.000,5872.000
5888.000,5773.000,5806.000
5779.000,5794.000,5802.000
5718.000,5751.000,5758.000
5775.000,5706.000,5715.000
5723.000,5661.000,5723.000
5711.000,5669.000,5697.000
5694.000,5635.000,5655.000
5608.000,5656.000,5725.000
5660.000,5619.000,5633.000
5641.000,5622.000,5592.000
5614.000,5545.000,5623.000
5561.000,5562.000,5568.000
5642.000,5604.000,5573.000
5575.000,5584.000,5651.000
5601.000,5518.000,5606.000
5571.000,5578.000,5583.000
5526.000,5553.000,5558.000
5546.000,5488.000,5580.000
5601.000,5590.000,5629.000
5564.000,5500.000,5574.000
5548.000,5526.000,5591.000
5522.000,5515.000,5604.000
5558.000,5597.000,5472.000
5494.000,5444.000,5553.000
5490.000,5532.000,5452.000
5584.000,5578.000,5585.000
5491.000,5529.000,5555.000
5458.000,5498.000,5580.000
5564.000,5472.000,5530.000
5579.000,5438.000,5469.000
5488.000,5477.000,5434.000
5469.000,5458.000,5442.000
5516.000,5438.000,5463.000
5362.000,5418.000,5466.000
5358.000,5399.000,5425.000
5388.000,5310.000,5400.000
5390.000,5414.000,5313.000
5258.000,5306.000,5393.000
5286.000,5383.000,5395.000
5365.000,5351.000,5355.000
5333.000,5342.000,5308.000
5420.000,5372.000,5358.000
5363.000,5321.000,5467.000
5378.000,5329.000,5364.000
5395.000,5290.000,5393.000
5451.000,5374.000,5373.000
5360.000,5304.000,5363.000
5385.000,5394.000,5369.000
5412.000,5355.000,5366.000
5268.000,5332.000,5380.000
5303.000,5313.000,5419.000
5277.000,5291.000,5345.000
5309.000,5318.000,5288.000
5256.000,5225.000,5199.000
5269.000,5211.000,5369.000
5240.000,5196.000,5299.000
5222.000,5323.000,5319.000
5301.000,5266.000,5262.000
5355.000,5256.000,5290.000
5252.000,5258.000,5311.000
5339.000,5228.000,5369.000
5327.000,5265.000,5374.000
5313.000,5291.000,5268.000
5361.000,5375.000,5319.000
5259.000,5344.000,5328.000
5327.000,5292.000,5327.000
5269.000,5274.000,5269.000
5325.000,5236.000,5245.000
5259.000,5269.000,5240.000
5286.000,5227.000,5258.000
5284.000,5281.000,5314.000
5203.000,5259.000,5181.000
5224.000,5184.000,5162.000
5231.000,5253.000,5227.000
5182.000,5231.000,5127.000
5196.000,5161.000,5206.000
5099.000,5155.000,5245.000
5138.000,5153.000,5166.000
5130.000,5122.000,5190.000
5138.000,5129.000,5109.000
5121.000,5236.000,5190.000
5245.000,5191.000,5218.000
5267.000,5176.000,5162.000
5198.000,5181.000,5234.000
5160.000,5196.000,5184.000
5240.000,5227.000,5176.000
5208.000,5202.000,5166.000
5131.000,5175.000,5142.000
5180.000,5174.000,5206.000
5117.000,5064.000,5168.000
5051.000,5075.000,5036.000
5144.000,5116.000,5076.000
5103.000,5087.000,5139.000
5144.000,5137.000,5071.000
5189.000,5177.000,5163.000
5115.000,5164.000,5217.000
5146.000,5105.000,5170.000
5163.000,5222.000,5121.000
5193.000,5146.000,5201.000
5201.000,5180.000,5269.000
5211.000,5089.000,5217.000
5099.000,5098.000,5094.000
5140.000,5109.000,5154.000
5148.000,5130.000,5073.000
5059.000,5063.000,5068.000
4994.000,5114.000,5126.000
5100.000,4995.000,5070.000
4998.000,5038.000,5005.000
5042.000,5037.000,5092.000
5085.000,5062.000,5016.000
5033.000,5057.000,5159.000
5145.000,5121.000,5144.000
5089.000,5111.000,5013.000
5063.000,5079.000,5122.000
5134.000,5088.000,5102.000
5050.000,5093.000,5092.000
5084.000,5097.000,5028.000
5115.000,5022.000,5039.000
5048.000,5032.000,4988.000
4990.000,5004.000,4970.000
5003.000,5012.000,5017.000
5020.000,4940.000,4955.000
4999.000,4929.000,4985.000
4995.000,4968.000,5026.000
4980.000,4988.000,5045.000
5003.000,5012.000,4954.000
5025.000,5015.000,5015.000
5023.000,5017.000,5035.000
5092.000,5011.000,5090.000
5112.000,5011.000,5024.000
5065.000,5061.000,5107.000
5159.000,5050.000,5089.000
5116.000,5117.000,5084.000
5154.000,5084.000,5104.000
5051.000,5074.000,5095.000
4999.000,5074.000,4989.000
5062.000,5006.000,5089.000
5003.000,5018.000,5039.000
5020.000,5005.000,5052.000
5023.000,4985.000,5010.000
4954.000,4981.000,4964.000
4998.000,4977.000,5093.000
5038.000,4950.000,4992.000
4929.000,5047.000,5028.000
4990.000,5042.000,5061.000
5008.000,5082.000,4986.000
5064.000,5071.000,5077.000
5121.000,5145.000,5129.000
5031.000,5131.000,5100.000
5096.000,5039.000,5081.000
5085.000,5057.000,5096.000
5077.000,5072.000,5031.000
5054.000,5019.000,5151.000
5052.000,5059.000,5095.000
5019.000,5023.000,5113.000
4964.000,4987.000,5036.000
4955.000,4966.000,5007.000
5008.000,4956.000,5001.000
4952.000,4973.000,4991.000
4964.000,4970.000,4980.000
4959.000,4940.000,4974.000
5029.000,5014.000,5029.000
5017.000,5078.000,5001.000
4964.000,5035.000,5036.000
5003.000,5017.000,5035.000
5007.000,4997.000,5061.000
4963.000,5048.000,5049.000
5007.000,4989.000,4958.000
4967.000,5029.000,5028.000
5041.000,5048.000,5039.000
5043.000,5058.000,5021.000
5003.000,4979.000,5061.000
5101.000,5037.000,5018.000
5080.000,5049.000,5073.000
4957.000,5045.000,5097.000
5051.000,5042.000,4982.000
5064.000,5035.000,5017.000
4991.000,5052.000,5028.000
5034.000,5027.000,5026.000
4975.000,5015.000,4991.000
5014.000,4968.000,4943.000
4999.000,5043.000,4967.000
4986.000,4949.000,5031.000
4945.000,4939.000,5010.000
4940.000,4901.000,4950.000
4964.000,4927.000,4971.000
4923.000,4977.000,4960.000
4961.000,4921.000,4938.000
4904.000,4953.000,4889.000
4949.000,4962.000,4975.000
4946.000,4924.000,4920.000
4921.000,4922.000,4961.000
4980.000,4992.000,4990.000
4899.000,4956.000,5013.000
4949.000,5017.000,5003.000
4984.000,4987.000,5028.000
5003.000,4922.000,4992.000
4965.000,4958.000,4989.000
4936.000,5037.000,4938.000
4937.000,4973.000,4997.000
5005.000,4939.000,4965.000
4991.000,4980.000,4940.000
4941.000,4919.000,4949.000
4920.000,4911.000,4926.000
4927.000,4860.000,4863.000
4863.000,4865.000,4835.000
4896.000,4795.000,4836.000
4766.000,4810.000,4852.000
4755.000,4780.000,4876.000
4751.000,4815.000,4803.000
4835.000,4833.000,4894.000
4771.000,4843.000,4795.000
4754.000,4807.000,4816.000
4786.000,4820.000,4845.000
4765.000,4753.000,4795.000
4816.000,4852.000,4837.000
4787.000,4867.000,4803.000
4792.000,4811.000,4795.000
4835.000,4816.000,4813.000
4865.000,4822.000,4809.000
4797.000,4818.000,4829.000
4804.000,4882.000,4814.000
4800.000,4817.000,4764.000
4794.000,4876.000,4910.000
4805.000,4881.000,4827.000
4797.000,4796.000,4747.000
4766.000,4777.000,4802.000
4761.000,4723.000,4791.000
4819.000,4820.000,4750.000
4796.000,4804.000,4763.000
4805.000,4795.000,4711.000
4747.000,4709.000,4789.000
4756.000,4813.000,4761.000
4766.000,4816.000,4768.000
4766.000,4737.000,4742.000
4710.000,4713.000,4759.000
4759.000,4704.000,4800.000
4696.000,4689.000,4721.000
4695.000,4704.000,4752.000
4705.000,4705.000,4771.000
4679.000,4644.000,4654.000
4702.000,4662.000,4667.000
4681.000,4721.000,4646.000
4654.000,4707.000,4681.000
4677.000,4659.000,4692.000
4714.000,4656.000,4640.000
4577.000,4665.000,4590.000
4639.000,4656.000,4616.000
4562.000,4560.000,4660.000
4595.000,4583.000,4615.000
4604.000,4587.000,4580.000
4573.000,4540.000,4633.000
4595.000,4598.000,4607.000
4605.000,4622.000,4613.000
4620.000,4641.000,4585.000
4680.000,4579.000,4674.000
4599.000,4591.000,4622.000
4648.000,4582.000,4675.000
4661.000,4646.000,4655.000
4609.000,4656.000,4659.000
4625.000,4626.000,4619.000
4683.000,4598.000,4626.000
4625.000,4595.000,4610.000
4634.000,4618.000,4631.000
4642.000,4593.000,4652.000
4579.000,4608.000,4637.000
4630.000,4671.000,4653.000
4576.000,4568.000,4620.000
4549.000,4551.000,4584.000
4557.000,4561.000,4555.000
4532.000,4570.000,4576.000
4547.000,4507.000,4583.000
4559.000,4505.000,4587.000
4546.000,4556.000,4549.000
4537.000,4507.000,4540.000
4479.000,4513.000,4515.000
4504.000,4543.000,4560.000
4505.000,4494.000,4524.000
4470.000,4486.000,4482.000
4494.000,4516.000,4454.000
4439.000,4432.000,4460.000
4393.000,4420.000,4492.000
4373.000,4433.000,4415.000
4405.000,4422.000,4370.000
4405.000,4414.000,4443.000
4388.000,4424.000,4337.000
4393.000,4373.000,4380.000
4380.000,4445.000,4437.000
4384.000,4395.000,4407.000
4414.000,4354.000,4345.000
4389.000,4391.000,4449.000
4377.000,4333.000,4367.000
4374.000,4400.000,4366.000
4408.000,4406.000,4401.000
4450.000,4431.000,4403.000
4402.000,4422.000,4415.000
4387.000,4447.000,4403.000
4383.000,4373.000,4483.000
4389.000,4396.000,4374.000
4442.000,4387.000,4381.000
4435.000,4395.000,4427.000
4393.000,4362.000,4326.000
4331.000,4363.000,4393.000
4332.000,4344.000,4400.000
4383.000,4389.000,4435.000
4369.000,4398.000,4370.000
4363.000,4320.000,4387.000
4357.000,4409.000,4341.000
4335.000,4319.000,4363.000
4340.000,4403.000,4400.000
4294.000,4276.000,4343.000
4341.000,4348.000,4337.000
4307.000,4361.000,4365.000
4311.000,4355.000,4336.000
4310.000,4297.000,4347.000
4299.000,4214.000,4354.000
4328.000,4254.000,4324.000
4314.000,4303.000,4390.000
4265.000,4297.000,4306.000
4282.000,4257.000,4286.000
4247.000,4228.000,4260.000
4189.000,4243.000,4281.000
4181.000,4273.000,4173.000
4160.000,4190.000,4271.000
4160.000,4213.000,4168.000
4160.000,4203.000,4163.000
4120.000,4112.000,4131.000
4130.000,4097.000,4149.000
4104.000,4091.000,4145.000
4132.000,4106.000,4124.000
4123.000,4120.000,4094.000
4105.000,4071.000,4149.000
4115.000,4152.000,4138.000
3998.000,4077.000,4117.000
4046.000,4017.000,4018.000
4022.000,4033.000,4059.000
4046.000,4010.000,4131.000
4085.000,4078.000,4096.000
4046.000,4051.000,4039.000
4045.000,4034.000,4053.000
4116.000,4078.000,4027.000
4016.000,4073.000,4067.000
4077.000,4084.000,4055.000
4119.000,4070.000,4054.000
3994.000,4027.000,4035.000
4012.000,4051.000,4058.000
4061.000,4039.000,4074.000
4060.000,4068.000,4033.000
4061.000,4030.000,4028.000
3985.000,4038.000,4055.000
4020.000,3965.000,3978.000
3995.000,3976.000,3944.000
3908.000,3914.000,3926.000
3981.000,3985.000,3994.000
3914.000,4002.000,3921.000
3895.000,3942.000,3915.000
3912.000,3879.000,3890.000
3896.000,3915.000,3920.000
3892.000,3903.000,3959.000
3857.000,3890.000,3901.000
3819.000,3870.000,3906.000
3822.000,3875.000,3863.000
3843.000,3853.000,3854.000
3851.000,3820.000,3886.000
3812.000,3811.000,3826.000
3814.000,3815.000,3797.000
3859.000,3795.000,3805.000
3807.000,3811.000,3798.000
3801.000,3838.000,3785.000
3755.000,3786.000,3810.000
3758.000,3746.000,3811.000
3743.000,3776.000,3739.000
3746.000,3766.000,3724.000
3740.000,3726.000,3722.000
3710.000,3781.000,3755.000
3717.000,3762.000,3785.000
3763.000,3758.000,3785.000
3715.000,3686.000,3749.000
3715.000,3687.000,3686.000
3627.000,3713.000,3738.000
3737.000,3693.000,3756.000
3715.000,3727.000,3753.000
3716.000,3708.000,3729.000
3750.000,3725.000,3748.000
3708.000,3719.000,3772.000
3664.000,3731.000,3733.000
3651.000,3682.000,3692.000
3662.000,3678.000,3676.000
3654.000,3647.000,3649.000
3707.000,3696.000,3674.000
3630.000,3618.000,3681.000
3669.000,3660.000,3663.000
3612.000,3585.000,3644.000
3595.000,3609.000,3681.000
3652.000,3555.000,3614.000
3589.000,3555.000,3610.000
3564.000,3686.000,3619.000
3549.000,3598.000,3558.000
3575.000,3555.000,3591.000
3533.000,3518.000,3535.000
3548.000,3545.000,3534.000
3502.000,3541.000,3533.000
3495.000,3470.000,3460.000
3479.000,3449.000,3553.000
3463.000,3451.000,3450.000
3479.000,3434.000,3462.000
3480.000,3454.000,3487.000
3461.000,3426.000,3444.000
3410.000,3402.000,3448.000
3391.000,3388.000,3475.000
3354.000,3395.000,3402.000
3367.000,3410.000,3367.000
3369.000,3387.000,3426.000
3349.000,3334.000,3392.000
3317.000,3348.000,3330.000
3343.000,3298.000,3341.000
3321.000,3303.000,3315.000
3285.000,3289.000,3302.000
3348.000,3290.000,3279.000
3254.000,3346.000,3325.000
3237.000,3264.000,3241.000
3277.000,3278.000,3312.000
3296.000,3269.000,3314.000
3262.000,3251.000,3328.000
3243.000,3210.000,3295.000
3301.000,3256.000,3254.000
3229.000,3230.000,3271.000
3255.000,3261.000,3250.000
3250.000,3262.000,3299.000
3219.000,3217.000,3293.000
3203.000,3203.000,3254.000
3212.000,3238.000,3212.000
3207.000,3203.000,3219.000
3225.000,3188.000,3229.000
3202.000,3204.000,3224.000
3230.000,3191.000,3234.000
3178.000,3199.000,3202.000
3222.000,3147.000,3234.000
3174.000,3161.000,3152.000
3193.000,3163.000,3200.000
3178.000,3131.000,3174.000
3132.000,3118.000,3148.000
3125.000,3132.000,3107.000
3145.000,3104.000,3133.000
3145.000,3063.000,3159.000
3075.000,3094.000,3133.000
3081.000,3062.000,3090.000
3100.000,3072.000,3092.000
3040.000,3008.000,3080.000
3072.000,3030.000,3092.000
3075.000,2978.000,3013.000
3017.000,2966.000,3043.000
2983.000,2989.000,2984.000
2959.000,2963.000,3021.000
2974.000,2914.000,3017.000
2987.000,2963.000,2982.000
2964.000,2901.000,3006.000
2966.000,2984.000,3001.000
2907.000,2972.000,2999.000
2950.000,2916.000,2958.000
2944.000,2919.000,2995.000
2931.000,2943.000,2973.000
2937.000,2884.000,2983.000
2893.000,2897.000,2992.000
2898.000,2935.000,3002.000
2916.000,2881.000,2960.000
2954.000,2835.000,2962.000
2899.000,2952.000,2964.000
2891.000,2923.000,2966.000
2882.000,2866.000,2982.000
2910.000,2851.000,2957.000
2890.000,2870.000,2945.000
2890.000,2883.000,2947.000
2874.000,2858.000,2921.000
2944.000,2850.000,2974.000
2849.000,2858.000,2980.000
2880.000,2855.000,2936.000
2842.000,2868.000,2871.000
2839.000,2837.000,2912.000
2886.000,2831.000,2859.000
2850.000,2805.000,2883.000
2839.000,2812.000,2843.000
2810.000,2800.000,2837.000
2841.000,2777.000,2825.000
2791.000,2764.000,2809.000
2830.000,2782.000,2786.000
2794.000,2816.000,2813.000
2823.000,2799.000,2794.000
2761.000,2757.000,2787.000
2744.000,2727.000,2755.000
2759.000,2761.000,2802.000
2726.000,2739.000,2723.000
2750.000,2702.000,2722.000
2695.000,2760.000,2710.000
2719.000,2684.000,2700.000
2699.000,2679.000,2733.000
2683.000,2710.000,2692.000
2705.000,2675.000,2648.000
2639.000,2677.000,2691.000
2676.000,2674.000,2693.000
2613.000,2656.000,2671.000
2638.000,2661.000,2682.000
2668.000,2672.000,2656.000
2621.000,2662.000,2683.000
2654.000,2667.000,2633.000
2666.000,2661.000,2659.000
2637.000,2648.000,2642.000
2613.000,2595.000,2649.000
2615.000,2636.000,2648.000
2631.000,2627.000,2651.000
2656.000,2631.000,2637.000
2697.000,2598.000,2630.000
2670.000,2630.000,2659.000
2673.000,2641.000,2699.000
2626.000,2620.000,2648.000
2631.000,2620.000,2663.000
2599.000,2651.000,2683.000
2681.000,2655.000,2652.000
2652.000,2625.000,2641.000
2619.000,2647.000,2673.000
2647.000,2614.000,2641.000
2664.000,2667.000,2591.000
2576.000,2629.000,2614.000
2593.000,2615.000,2577.000
2628.000,2631.000,2615.000
2603.000,2586.000,2632.000
2612.000,2598.000,2623.000
2559.000,2585.000,2578.000
2621.000,2613.000,2601.000
2595.000,2586.000,2624.000
2541.000,2574.000,2563.000
2575.000,2559.000,2581.000
2537.000,2515.000,2589.000
2556.000,2523.000,2559.000
2556.000,2552.000,2516.000
2542.000,2553.000,2525.000
2545.000,2549.000,2551.000
2531.000,2553.000,2556.000
2581.000,2557.000,2580.000
2585.000,2559.000,2573.000
2513.000,2550.000,2607.000
2619.000,2538.000,2639.000
2568.000,2570.000,2559.000
2573.000,2544.000,2560.000
2577.000,2595.000,2612.000
2613.000,2569.000,2626.000
2599.000,2551.000,2590.000
2630.000,2577.000,2547.000
2546.000,2602.000,2601.000
2618.000,2631.000,2609.000
2542.000,2641.000,2650.000
2586.000,2590.000,2555.000
2635.000,2602.000,2607.000
2582.000,2571.000,2585.000
2577.000,2554.000,2566.000
2581.000,2569.000,2589.000
2582.000,2596.000,2587.000
2579.000,2583.000,2620.000
2564.000,2554.000,2574.000
2560.000,2553.000,2554.000
2511.000,2561.000,2582.000
2520.000,2559.000,2578.000
2524.000,2530.000,2549.000
2549.000,2505.000,2554.000
2493.000,2556.000,2520.000
2552.000,2550.000,2550.000
2546.000,2514.000,2579.000
2518.000,2491.000,2504.000
2513.000,2515.000,2524.000
2516.000,2572.000,2565.000
2499.000,2524.000,2544.000
2546.000,2561.000,2542.000
2545.000,2572.000,2567.000
2545.000,2554.000,2560.000
2535.000,2558.000,2552.000
2550.000,2520.000,2573.000
2599.000,2550.000,2553.000
2558.000,2593.000,2551.000
2552.000,2594.000,2598.000
2573.000,2594.000,2547.000
2575.000,2554.000,2583.000
2583.000,2624.000,2640.000
2596.000,2580.000,2607.000
2562.000,2550.000,2580.000
2583.000,2551.000,2590.000
2594.000,2587.000,2602.000
2601.000,2579.000,2578.000
2559.000,2581.000,2581.000
2530.000,2575.000,2570.000
2563.000,2601.000,2584.000
2579.000,2560.000,2615.000
2580.000,2583.000,2587.000
2583.000,2598.000,2557.000
2563.000,2579.000,2570.000
2604.000,2593.000,2599.000
2555.000,2569.000,2569.000
2560.000,2564.000,2574.000
2557.000,2527.000,2581.000
2555.000,2600.000,2531.000
2529.000,2503.000,2544.000
2583.000,2575.000,2509.000
2555.000,2591.000,2555.000
2556.000,2500.000,2552.000
2514.000,2544.000,2556.000
2503.000,2564.000,2543.000
2538.000,2543.000,2568.000
2520.000,2577.000,2555.000
2502.000,2536.000,2533.000
2514.000,2505.000,2531.000
2476.000,2514.000,2519.000
2496.000,2518.000,2511.000
2485.000,2531.000,2532.000
2512.000,2502.000,2540.000
2503.000,2530.000,2560.000
2504.000,2507.000,2551.000
2489.000,2506.000,2526.000
2533.000,2533.000,2543.000
2538.000,2521.000,2539.000
2563.000,2515.000,2567.000
2540.000,2567.000,2569.000
2552.000,2508.000,2590.000
2519.000,2571.000,2554.000
2565.000,2560.000,2550.000
2554.000,2568.000,2570.000
2577.000,2543.000,2550.000
2578.000,2555.000,2589.000
2599.000,2583.000,2576.000
2594.000,2574.000,2590.000
2553.000,2601.000,2608.000
2597.000,2588.000,2594.000
2585.000,2570.000,2567.000
2547.000,2543.000,2581.000
2559.000,2553.000,2574.000
2548.000,2559.000,2586.000
2563.000,2592.000,2626.000
2569.000,2572.000,2572.000
2554.000,2560.000,2587.000
2524.000,2564.000,2557.000
2546.000,2562.000,2598.000
2553.000,2531.000,2560.000
2544.000,2555.000,2562.000
2523.000,2544.000,2518.000
2513.000,2532.000,2564.000
2511.000,2523.000,2535.000
2504.000,2529.000,2505.000
2483.000,2499.000,2507.000
2510.000,2537.000,2529.000
2522.000,2535.000,2524.000
2498.000,2503.000,2526.000
2494.000,2502.000,2493.000
2497.000,2500.000,2506.000
2499.000,2514.000,2492.000
2503.000,2524.000,2554.000
2511.000,2524.000,2503.000
2504.000,2510.000,2499.000
2504.000,2503.000,2550.000
2475.000,2525.000,2515.000
2491.000,2546.000,2517.000
2503.000,2521.000,2558.000
2523.000,2555.000,2549.000
2540.000,2530.000,2581.000
2526.000,2605.000,2570.000
2556.000,2572.000,2553.000
2527.000,2533.000,2601.000
2546.000,2514.000,2602.000
2595.000,2548.000,2581.000
2547.000,2603.000,2567.000
2593.000,2554.000,2528.000
2529.000,2563.000,2538.000
2564.000,2543.000,2551.000
2544.000,2536.000,2576.000
2521.000,2515.000,2550.000
2538.000,2558.000,2578.000
2516.000,2537.000,2565.000
2537.000,2520.000,2522.000
2491.000,2523.000,2500.000
2535.000,2487.000,2513.000
2494.000,2507.000,2488.000
2492.000,2515.000,2488.000
2488.000,2470.000,2553.000
2482.000,2505.000,2502.000
2461.000,2463.000,2497.000
2488.000,2511.000,2537.000
2477.000,2479.000,2499.000
2465.000,2455.000,2476.000
2454.000,2472.000,2486.000
2475.000,2440.000,2491.000
2446.000,2494.000,2459.000
2488.000,2490.000,2470.000
2506.000,2469.000,2506.000
2478.000,2463.000,2500.000
2499.000,2492.000,2489.000
2527.000,2508.000,2504.000
2499.000,2507.000,2491.000
2503.000,2507.000,2533.000
2512.000,2499.000,2532.000
2518.000,2521.000,2496.000
2499.000,2549.000,2500.000
2510.000,2525.000,2525.000
2509.000,2510.000,2530.000
2480.000,2513.000,2546.000
2536.000,2524.000,2562.000
2469.000,2506.000,2497.000
2474.000,2545.000,2557.000
2459.000,2500.000,2530.000
2487.000,2515.000,2488.000
2487.000,2522.000,2506.000
2470.000,2518.000,2526.000
2515.000,2470.000,2501.000
2483.000,2465.000,2494.000
2502.000,2438.000,2490.000
2436.000,2474.000,2473.000
2445.000,2486.000,2464.000
2460.000,2452.000,2454.000
2425.000,2444.000,2402.000
2429.000,2428.000,2403.000
2426.000,2453.000,2442.000
2403.000,2420.000,2411.000
2419.000,2396.000,2453.000
2413.000,2415.000,2433.000
2413.000,2424.000,2455.000
2433.000,2421.000,2439.000
2400.000,2392.000,2409.000
2419.000,2426.000,2413.000
2432.000,2454.000,2397.000
2411.000,2431.000,2365.000
2421.000,2431.000,2384.000
2401.000,2434.000,2461.000
2386.000,2383.000,2393.000
2417.000,2407.000,2416.000
2396.000,2434.000,2430.000
2425.000,2418.000,2404.000
2429.000,2442.000,2442.000
2403.000,2410.000,2443.000
2405.000,2420.000,2440.000
2393.000,2452.000,2414.000
2465.000,2436.000,2419.000
2421.000,2463.000,2431.000
2415.000,2389.000,2435.000
2428.000,2409.000,2392.000
2419.000,2394.000,2440.000
2376.000,2397.000,2440.000
2399.000,2406.000,2401.000
2382.000,2391.000,2382.000
2372.000,2383.000,2379.000
2384.000,2403.000,2370.000
2375.000,2345.000,2356.000
2386.000,2385.000,2370.000
2334.000,2363.000,2357.000
2321.000,2338.000,2374.000
2330.000,2313.000,2358.000
2316.000,2332.000,2349.000
2321.000,2353.000,2341.000
2344.000,2307.000,2346.000
2332.000,2334.000,2374.000
2306.000,2288.000,2292.000
2319.000,2313.000,2311.000
2332.000,2309.000,2324.000
2274.000,2299.000,2348.000
2309.000,2317.000,2262.000
2275.000,2290.000,2286.000
2277.000,2327.000,2263.000
2272.000,2258.000,2275.000
2287.000,2288.000,2277.000
2278.000,2298.000,2257.000
2261.000,2228.000,2293.000
2262.000,2267.000,2262.000
2253.000,2263.000,2261.000
2250.000,2250.000,2267.000
2252.000,2257.000,2291.000
2251.000,2274.000,2245.000
2215.000,2253.000,2262.000
2280.000,2250.000,2257.000
2256.000,2272.000,2258.000
2257.000,2304.000,2288.000
2266.000,2292.000,2288.000
2292.000,2300.000,2268.000
2254.000,2289.000,2252.000
2254.000,2281.000,2273.000
2246.000,2248.000,2275.000
2293.000,2260.000,2267.000
2244.000,2229.000,2248.000
2231.000,2260.000,2231.000
2211.000,2232.000,2261.000
2232.000,2255.000,2223.000
2226.000,2232.000,2226.000
2224.000,2230.000,2257.000
2227.000,2209.000,2270.000
2224.000,2243.000,2227.000
2205.000,2256.000,2239.000
2217.000,2233.000,2207.000
2214.000,2213.000,2188.000
2194.000,2197.000,2212.000
2210.000,2213.000,2195.000
2216.000,2202.000,2204.000
2190.000,2199.000,2205.000
2199.000,2215.000,2237.000
2186.000,2200.000,2186.000
2189.000,2163.000,2201.000
2152.000,2144.000,2159.000
2134.000,2139.000,2179.000
2177.000,2128.000,2119.000
2136.000,2114.000,2150.000
2168.000,2147.000,2164.000
2131.000,2147.000,2147.000
2145.000,2121.000,2155.000
2109.000,2137.000,2133.000
2105.000,2119.000,2130.000
2127.000,2127.000,2125.000
2108.000,2109.000,2114.000
2121.000,2105.000,2085.000
2119.000,2085.000,2112.000
2095.000,2084.000,2129.000
2088.000,2095.000,2135.000
2130.000,2158.000,2102.000
2089.000,2128.000,2118.000
2125.000,2110.000,2113.000
2105.000,2117.000,2115.000
2092.000,2110.000,2105.000
2088.000,2084.000,2094.000
2120.000,2101.000,2109.000
2118.000,2101.000,2121.000
2096.000,2123.000,2118.000
2120.000,2097.000,2089.000
2127.000,2124.000,2118.000
2115.000,2067.000,2106.000
2073.000,2098.000,2121.000
2066.000,2114.000,2111.000
2077.000,2109.000,2134.000
2055.000,2062.000,2099.000
2119.000,2109.000,2106.000
2087.000,2057.000,2078.000
2064.000,2088.000,2062.000
2060.000,2072.000,2072.000
2039.000,2063.000,2056.000
2087.000,2059.000,2075.000
2029.000,2078.000,2064.000
2058.000,2058.000,2035.000
2027.000,2058.000,2083.000
2047.000,2069.000,2050.000
2053.000,2014.000,2048.000
2056.000,2031.000,2055.000
1999.000,2020.000,2022.000
2001.000,2031.000,2024.000
1988.000,1996.000,2027.000
1998.000,2003.000,2002.000
2002.000,1970.000,1993.000
1999.000,2007.000,1996.000
1995.000,1973.000,1980.000
1972.000,1979.000,1979.000
1995.000,1984.000,1987.000
1968.000,1960.000,1979.000
1961.000,1959.000,1976.000
1932.000,1966.000,1963.000
1950.000,1929.000,1956.000
1970.000,1936.000,1980.000
1946.000,1954.000,1927.000
1944.000,1908.000,1948.000
1908.000,1919.000,1941.000
1922.000,1930.000,1940.000
1967.000,1937.000,1907.000
1929.000,1916.000,1924.000
1915.000,1937.000,1926.000
1907.000,1919.000,1952.000
1918.000,1941.000,1934.000
1896.000,1935.000,1946.000
1955.000,1919.000,1926.000
1885.000,1919.000,1969.000
1926.000,1921.000,1939.000
1916.000,1905.000,1931.000
1891.000,1909.000,1922.000
1926.000,1953.000,1913.000
1937.000,1909.000,1895.000
1943.000,1899.000,1907.000
1881.000,1929.000,1897.000
1919.000,1913.000,1904.000
1909.000,1910.000,1913.000
1902.000,1921.000,1916.000
1905.000,1877.000,1889.000
1871.000,1884.000,1891.000
1850.000,1889.000,1918.000
1868.000,1874.000,1898.000
1880.000,1863.000,1887.000
1877.000,1887.000,1850.000
1867.000,1868.000,1852.000
1850.000,1852.000,1880.000
1859.000,1840.000,1856.000
1823.000,1866.000,1855.000
1842.000,1844.000,1845.000
1828.000,1845.000,1815.000
1846.000,1835.000,1828.000
1809.000,1814.000,1809.000
1823.000,1816.000,1812.000
1808.000,1815.000,1852.000
1810.000,1798.000,1805.000
1805.000,1801.000,1813.000
1809.000,1797.000,1829.000
1798.000,1803.000,1810.000
1811.000,1787.000,1803.000
1785.000,1789.000,1807.000
1803.000,1782.000,1778.000
1788.000,1787.000,1786.000
1781.000,1802.000,1752.000
1765.000,1776.000,1755.000
1765.000,1766.000,1753.000
1768.000,1769.000,1755.000
1747.000,1773.000,1753.000
1741.000,1757.000,1764.000
1751.000,1772.000,1761.000
1763.000,1769.000,1767.000
1752.000,1773.000,1745.000
1755.000,1770.000,1769.000
1732.000,1752.000,1747.000
1755.000,1737.000,1750.000
1784.000,1754.000,1734.000
1744.000,1748.000,1745.000
1749.000,1761.000,1760.000
1730.000,1740.000,1720.000
1725.000,1744.000,1760.000
1785.000,1734.000,1749.000
1740.000,1741.000,1751.000
1738.000,1741.000,1753.000
1713.000,1738.000,1727.000
1735.000,1722.000,1727.000
1731.000,1737.000,1710.000
1712.000,1711.000,1739.000
1730.000,1720.000,1718.000
1725.000,1714.000,1703.000
1693.000,1731.000,1729.000
1681.000,1693.000,1705.000
1702.000,1702.000,1708.000
1695.000,1698.000,1717.000
1705.000,1699.000,1696.000
1678.000,1687.000,1703.000
1670.000,1705.000,1693.000
1692.000,1680.000,1676.000
1697.000,1664.000,1677.000
1659.000,1666.000,1659.000
1665.000,1652.000,1662.000
1648.000,1657.000,1643.000
1637.000,1639.000,1644.000
1645.000,1661.000,1655.000
