Focus Mode,Read Mode,Exposure Time (sec),Number of Frames,Start Y,End Y,Date,Time,Position (microns)
Single Acquisition,Spectrum,30.000000,3,105,125,12/11/2020,5:17:40 PM,0.000000,0.000000,40.010000,

1297.000,1302.000,1299.000
1306.000,1291.000,1282.000
1304.000,1289.000,1282.000
1300.000,1303.000,1279.000
1302.000,1298.000,1287.000
1300.000,1298.000,1288.000
1310.000,1290.000,1290.000
1300.000,1302.000,1292.000
1313.000,1309.000,1292.000
1312.000,1308.000,1298.000
1303.000,1297.000,1290.000
1304.000,1291.000,1295.000
1312.000,1299.000,1306.000
1311.000,1300.000,1300.000
1301.000,1299.000,1302.000
1308.000,1306.000,1290.000
1314.000,1300.000,1319.000
1319.000,1311.000,1314.000
1320.000,1305.000,1317.000
1315.000,1318.000,1314.000
1337.000,1319.000,1316.000
1324.000,1301.000,1314.000
1340.000,1316.000,1331.000
1340.000,1325.000,1330.000
1349.000,1328.000,1325.000
1334.000,1336.000,1319.000
1361.000,1330.000,1349.000
1351.000,1333.000,1338.000
1360.000,1337.000,1333.000
1363.000,1339.000,1337.000
1368.000,1349.000,1371.000
1368.000,1349.000,1351.000
1367.000,1358.000,1355.000
1362.000,1367.000,1357.000
1385.000,1359.000,1368.000
1377.000,1380.000,1378.000
1404.000,1383.000,1378.000
1398.000,1383.000,1369.000
1395.000,1384.000,1384.000
1407.000,1389.000,1386.000
1410.000,1392.000,1393.000
1413.000,1412.000,1388.000
1419.000,1407.000,1405.000
1432.000,1415.000,1408.000
1435.000,1422.000,1409.000
1443.000,1424.000,1416.000
1458.000,1450.000,1435.000
1472.000,1446.000,1436.000
1477.000,1468.000,1443.000
1485.000,1470.000,1463.000
1511.000,1480.000,1459.000
1499.000,1487.000,1474.000
1528.000,1505.000,1489.000
1522.000,1504.000,1486.000
1534.000,1531.000,1514.000
1551.000,1560.000,1554.000
1566.000,1528.000,1538.000
1574.000,1566.000,1542.000
1564.000,1544.000,1553.000
1576.000,1553.000,1554.000
1577.000,1561.000,1563.000
1590.000,1570.000,1568.000
1582.000,1587.000,1564.000
1575.000,1579.000,1569.000
1617.000,1599.000,1586.000
1601.000,1605.000,1609.000
1654.000,1633.000,1620.000
1647.000,1666.000,1658.000
1685.000,1668.000,1667.000
1746.000,1723.000,1690.000
1771.000,1718.000,1722.000
1802.000,1771.000,1740.000
1817.000,1760.000,1776.000
1796.000,1799.000,1801.000
1869.000,1856.000,1807.000
1919.000,1868.000,1837.000
1920.000,1903.000,1870.000
1981.000,1919.000,1896.000
1983.000,1928.000,1919.000
1994.000,1951.000,1941.000
2006.000,1970.000,1959.000
2025.000,1986.000,1983.000
2093.000,2031.000,1977.000
2100.000,2023.000,2019.000
2118.000,2068.000,2051.000
2133.000,2115.000,2085.000
2147.000,2116.000,2107.000
2166.000,2128.000,2107.000
2206.000,2173.000,2138.000
2220.000,2192.000,2155.000
2256.000,2262.000,2203.000
2302.000,2273.000,2276.000
2399.000,2342.000,2351.000
2441.000,2395.000,2415.000
2505.000,2504.000,2482.000
2596.000,2560.000,2574.000
2715.000,2675.000,2682.000
2871.000,2828.000,2791.000
3068.000,3020.000,3037.000
3321.000,3187.000,3225.000
3578.000,3437.000,3448.000
3784.000,3698.000,3630.000
4068.000,3948.000,3952.000
4349.000,4202.000,4247.000
4516.000,4344.000,4328.000
4612.000,4524.000,4436.000
4697.000,4574.000,4591.000
4721.000,4569.000,4577.000
4743.000,4579.000,4518.000
4745.000,4601.000,4555.000
4675.000,4510.000,4461.000
4606.000,4504.000,4425.000
4465.000,4462.000,4351.000
4375.000,4217.000,4204.000
4339.000,4178.000,4205.000
4353.000,4305.000,4299.000
4394.000,4407.000,4291.000
4622.000,4493.000,4482.000
4946.000,4958.000,4883.000
5507.000,5513.000,5459.000
6514.000,6581.000,6488.000
61543.000,61619.000,61578.000
62237.000,62240.000,62236.000
62158.000,62157.000,62158.000
62078.000,62078.000,62081.000
62102.000,62101.000,62101.000
62103.000,62102.000,62099.000
62061.000,62071.000,62075.000
62071.000,62071.000,62073.000
62075.000,62080.000,62080.000
62059.000,62067.000,62069.000
62063.000,62065.000,62061.000
62065.000,62067.000,62068.000
62062.000,62067.000,62064.000
62058.000,62061.000,62060.000
62056.000,62063.000,62065.000
62060.000,62061.000,62058.000
62057.000,62066.000,62061.000
62061.000,62058.000,62061.000
62057.000,62061.000,62062.000
62059.000,62056.000,62058.000
62059.000,62062.000,62054.000
62049.000,62058.000,62060.000
62058.000,62058.000,62055.000
62058.000,62054.000,62062.000
62056.000,62055.000,62061.000
62058.000,62055.000,62056.000
62057.000,62058.000,62056.000
62055.000,62056.000,62052.000
62046.000,62055.000,62056.000
62057.000,62052.000,62057.000
62049.000,62056.000,62055.000
62051.000,62057.000,62050.000
62050.000,62060.000,62052.000
62055.000,62059.000,62056.000
62053.000,62058.000,62058.000
62055.000,62055.000,62055.000
62048.000,62056.000,62055.000
62051.000,62054.000,62053.000
62049.000,62050.000,62055.000
62051.000,62053.000,62053.000
62053.000,62053.000,62049.000
62053.000,62054.000,62051.000
62054.000,62052.000,62055.000
62058.000,62048.000,62052.000
62052.000,62054.000,62056.000
62048.000,62055.000,62056.000
62048.000,62053.000,62056.000
62053.000,62056.000,62050.000
62048.000,62054.000,62058.000
62054.000,62053.000,62055.000
62049.000,62054.000,62056.000
62059.000,62060.000,62052.000
62052.000,62054.000,62055.000
62053.000,62058.000,62055.000
62055.000,62057.000,62056.000
62054.000,62051.000,62055.000
62055.000,62057.000,62052.000
62051.000,62051.000,62054.000
62055.000,62060.000,62053.000
62053.000,62055.000,62059.000
62055.000,62055.000,62060.000
62053.000,62063.000,62058.000
62060.000,62052.000,62056.000
62059.000,62055.000,62064.000
62054.000,62055.000,62057.000
62053.000,62054.000,62059.000
62058.000,62052.000,62063.000
62061.000,62064.000,62059.000
62065.000,62059.000,62088.000
62078.000,62076.000,62106.000
62100.000,62099.000,16371.000
42684.000,59601.000,1559.000
1607.000,1635.000,1535.000
1557.000,1560.000,1528.000
1520.000,1531.000,1528.000
1518.000,1529.000,1525.000
1513.000,1515.000,1494.000
1503.000,1511.000,1479.000
1490.000,1487.000,1492.000
1496.000,1480.000,1476.000
1472.000,1486.000,1466.000
1472.000,1469.000,1470.000
1473.000,1471.000,1452.000
1461.000,1479.000,1452.000
1462.000,1480.000,1443.000
1456.000,1470.000,1445.000
1452.000,1444.000,1448.000
1448.000,1446.000,1447.000
1428.000,1433.000,1443.000
1445.000,1430.000,1418.000
1438.000,1427.000,1424.000
1424.000,1426.000,1406.000
1430.000,1422.000,1420.000
1427.000,1422.000,1409.000
1408.000,1412.000,1408.000
1402.000,1406.000,1397.000
1411.000,1409.000,1419.000
1400.000,1424.000,1400.000
1405.000,1395.000,1394.000
1394.000,1413.000,1396.000
1388.000,1390.000,1388.000
1375.000,1378.000,1379.000
1381.000,1384.000,1383.000
1394.000,1375.000,1383.000
1381.000,1392.000,1373.000
1380.000,1370.000,1382.000
1371.000,1384.000,1379.000
1378.000,1379.000,1376.000
1374.000,1377.000,1365.000
1365.000,1361.000,1364.000
1366.000,1380.000,1363.000
1386.000,1363.000,1380.000
1367.000,1383.000,1372.000
1362.000,1366.000,1352.000
1365.000,1360.000,1378.000
1367.000,1381.000,1352.000
1355.000,1348.000,1365.000
1348.000,1365.000,1354.000
1352.000,1355.000,1351.000
1355.000,1349.000,1346.000
1349.000,1348.000,1341.000
1350.000,1354.000,1353.000
1347.000,1348.000,1349.000
1343.000,1337.000,1334.000
1349.000,1350.000,1342.000
1345.000,1344.000,1347.000
1342.000,1350.000,1327.000
1332.000,1332.000,1345.000
1349.000,1347.000,1347.000
1332.000,1337.000,1324.000
1333.000,1328.000,1339.000
1326.000,1336.000,1337.000
1323.000,1338.000,1332.000
1332.000,1333.000,1335.000
1330.000,1336.000,1330.000
1336.000,1339.000,1338.000
1324.000,1326.000,1337.000
1325.000,1330.000,1336.000
1329.000,1315.000,1317.000
1327.000,1319.000,1345.000
1339.000,1326.000,1322.000
1313.000,1319.000,1317.000
1319.000,1336.000,1327.000
1309.000,1331.000,1322.000
1324.000,1313.000,1311.000
1319.000,1328.000,1328.000
1323.000,1318.000,1316.000
1316.000,1326.000,1313.000
1322.000,1307.000,1329.000
1319.000,1324.000,1309.000
1315.000,1321.000,1315.000
1320.000,1323.000,1310.000
1319.000,1316.000,1308.000
1318.000,1322.000,1312.000
1321.000,1307.000,1309.000
1313.000,1324.000,1317.000
1317.000,1313.000,1305.000
1306.000,1308.000,1315.000
1304.000,1323.000,1308.000
1316.000,1318.000,1312.000
1314.000,1307.000,1319.000
1313.000,1313.000,1310.000
1322.000,1309.000,1314.000
1308.000,1309.000,1308.000
1320.000,1314.000,1305.000
1325.000,1319.000,1318.000
1324.000,1319.000,1316.000
1319.000,1319.000,1299.000
1321.000,1320.000,1317.000
1319.000,1327.000,1325.000
1329.000,1332.000,1333.000
1340.000,1329.000,1331.000
1334.000,1334.000,1326.000
1348.000,1337.000,1346.000
1360.000,1335.000,1336.000
1362.000,1367.000,1360.000
1371.000,1364.000,1348.000
1368.000,1369.000,1373.000
1399.000,1386.000,1391.000
1414.000,1390.000,1391.000
1412.000,1421.000,1409.000
1463.000,1425.000,1417.000
1470.000,1461.000,1454.000
1497.000,1480.000,1473.000
1530.000,1519.000,1495.000
1587.000,1549.000,1546.000
1609.000,1596.000,1603.000
1712.000,1668.000,1630.000
1792.000,1710.000,1678.000
1835.000,1808.000,1763.000
1913.000,1886.000,1855.000
2017.000,1992.000,1956.000
2155.000,2124.000,2053.000
2269.000,2234.000,2207.000
2429.000,2407.000,2292.000
2636.000,2511.000,2441.000
2844.000,2721.000,2590.000
3013.000,2901.000,2798.000
3126.000,3058.000,2919.000
3413.000,3224.000,3073.000
3625.000,3468.000,3244.000
3805.000,3612.000,3387.000
3931.000,3740.000,3499.000
4132.000,3923.000,3682.000
4247.000,4082.000,3848.000
4390.000,4154.000,3908.000
4438.000,4251.000,3974.000
4480.000,4291.000,4052.000
4590.000,4308.000,4064.000
4622.000,4342.000,4063.000
4566.000,4325.000,4123.000
4597.000,4393.000,4185.000
4666.000,4438.000,4205.000
4702.000,4445.000,4176.000
4704.000,4443.000,4227.000
4636.000,4417.000,4148.000
4664.000,4383.000,4171.000
4679.000,4414.000,4165.000
4615.000,4439.000,4146.000
4648.000,4295.000,4119.000
4627.000,4391.000,4107.000
4712.000,4398.000,4105.000
4679.000,4415.000,4157.000
4686.000,4441.000,4162.000
4640.000,4461.000,4156.000
4685.000,4413.000,4168.000
4685.000,4463.000,4138.000
4737.000,4468.000,4161.000
4664.000,4389.000,4193.000
4629.000,4412.000,4185.000
4731.000,4356.000,4133.000
4686.000,4429.000,4142.000
4655.000,4390.000,4139.000
4706.000,4425.000,4162.000
4735.000,4392.000,4155.000
4634.000,4473.000,4198.000
4668.000,4415.000,4203.000
4602.000,4470.000,4165.000
4652.000,4390.000,4197.000
4635.000,4473.000,4141.000
4699.000,4354.000,4165.000
4692.000,4456.000,4147.000
4769.000,4399.000,4198.000
4704.000,4484.000,4115.000
4689.000,4426.000,4145.000
4688.000,4439.000,4165.000
4676.000,4391.000,4143.000
4642.000,4396.000,4152.000
4642.000,4407.000,4156.000
4677.000,4448.000,4202.000
4762.000,4450.000,4158.000
4723.000,4397.000,4184.000
4684.000,4393.000,4164.000
4642.000,4419.000,4161.000
4690.000,4416.000,4165.000
4649.000,4412.000,4138.000
4671.000,4441.000,4166.000
4656.000,4511.000,4162.000
4760.000,4517.000,4256.000
4776.000,4497.000,4233.000
4765.000,4534.000,4213.000
4797.000,4499.000,4189.000
4737.000,4478.000,4216.000
4759.000,4562.000,4241.000
4778.000,4434.000,4229.000
4707.000,4503.000,4332.000
4791.000,4579.000,4287.000
4725.000,4533.000,4294.000
4791.000,4555.000,4278.000
4836.000,4514.000,4207.000
4724.000,4511.000,4281.000
4807.000,4589.000,4264.000
4824.000,4566.000,4274.000
4874.000,4625.000,4275.000
4819.000,4578.000,4274.000
4834.000,4558.000,4285.000
4778.000,4564.000,4322.000
4801.000,4581.000,4294.000
4842.000,4622.000,4341.000
4829.000,4455.000,4278.000
4815.000,4541.000,4322.000
4773.000,4491.000,4279.000
4817.000,4474.000,4310.000
4786.000,4560.000,4297.000
4828.000,4492.000,4272.000
4765.000,4614.000,4231.000
4868.000,4508.000,4286.000
4790.000,4631.000,4297.000
4822.000,4578.000,4272.000
4800.000,4508.000,4309.000
4788.000,4511.000,4254.000
4789.000,4617.000,4324.000
4893.000,4562.000,4295.000
4800.000,4543.000,4233.000
4760.000,4584.000,4266.000
4849.000,4594.000,4277.000
4891.000,4589.000,4324.000
4781.000,4594.000,4306.000
4793.000,4607.000,4324.000
4899.000,4542.000,4367.000
4829.000,4562.000,4281.000
4801.000,4615.000,4297.000
4791.000,4604.000,4291.000
4851.000,4612.000,4305.000
4837.000,4591.000,4295.000
4869.000,4625.000,4385.000
4843.000,4604.000,4386.000
4897.000,4646.000,4322.000
4891.000,4603.000,4345.000
4873.000,4657.000,4360.000
4967.000,4613.000,4384.000
4883.000,4681.000,4372.000
4883.000,4650.000,4376.000
4833.000,4603.000,4344.000
4901.000,4696.000,4431.000
4923.000,4705.000,4400.000
4890.000,4673.000,4417.000
4856.000,4729.000,4405.000
4865.000,4679.000,4428.000
4919.000,4741.000,4413.000
4871.000,4673.000,4357.000
4895.000,4628.000,4346.000
4877.000,4595.000,4431.000
4878.000,4716.000,4377.000
4936.000,4673.000,4408.000
4892.000,4760.000,4434.000
4965.000,4699.000,4384.000
5008.000,4716.000,4441.000
4907.000,4736.000,4393.000
4960.000,4726.000,4382.000
4905.000,4751.000,4453.000
4866.000,4781.000,4461.000
4846.000,4662.000,4361.000
4903.000,4760.000,4383.000
4892.000,4717.000,4462.000
4851.000,4645.000,4413.000
4901.000,4736.000,4451.000
4922.000,4649.000,4440.000
4899.000,4704.000,4455.000
4836.000,4687.000,4378.000
4941.000,4734.000,4465.000
4909.000,4743.000,4429.000
4915.000,4706.000,4431.000
4913.000,4665.000,4369.000
4922.000,4701.000,4421.000
4878.000,4683.000,4423.000
4924.000,4710.000,4421.000
4917.000,4786.000,4457.000
4937.000,4744.000,4375.000
4883.000,4694.000,4480.000
4922.000,4676.000,4385.000
4933.000,4709.000,4388.000
4975.000,4764.000,4488.000
4947.000,4692.000,4437.000
4979.000,4739.000,4491.000
4939.000,4723.000,4468.000
4949.000,4753.000,4482.000
4914.000,4765.000,4492.000
4970.000,4730.000,4507.000
4967.000,4751.000,4460.000
4912.000,4713.000,4484.000
4961.000,4723.000,4428.000
4957.000,4665.000,4481.000
4954.000,4736.000,4484.000
5017.000,4742.000,4429.000
4990.000,4723.000,4471.000
4994.000,4790.000,4428.000
4979.000,4731.000,4456.000
5033.000,4783.000,4483.000
5028.000,4755.000,4464.000
5036.000,4750.000,4536.000
4981.000,4773.000,4483.000
5049.000,4740.000,4515.000
4995.000,4751.000,4456.000
4996.000,4804.000,4489.000
5065.000,4807.000,4562.000
5000.000,4755.000,4460.000
5006.000,4811.000,4471.000
5024.000,4763.000,4468.000
5008.000,4774.000,4470.000
5050.000,4795.000,4535.000
4997.000,4801.000,4505.000
4980.000,4778.000,4521.000
5002.000,4832.000,4499.000
4999.000,4808.000,4527.000
4992.000,4873.000,4526.000
4974.000,4772.000,4485.000
5029.000,4824.000,4595.000
5017.000,4763.000,4484.000
4950.000,4741.000,4522.000
4998.000,4793.000,4484.000
4987.000,4839.000,4492.000
4971.000,4817.000,4581.000
4986.000,4816.000,4482.000
4948.000,4787.000,4490.000
5075.000,4828.000,4485.000
5044.000,4827.000,4540.000
4970.000,4735.000,4493.000
5043.000,4729.000,4432.000
4969.000,4803.000,4515.000
5039.000,4796.000,4414.000
4950.000,4764.000,4433.000
4982.000,4783.000,4509.000
4903.000,4703.000,4453.000
4957.000,4808.000,4380.000
4955.000,4795.000,4481.000
4988.000,4788.000,4450.000
4962.000,4773.000,4523.000
5042.000,4819.000,4535.000
5021.000,4715.000,4538.000
5009.000,4837.000,4528.000
4995.000,4802.000,4493.000
5060.000,4830.000,4518.000
4998.000,4750.000,4471.000
4969.000,4781.000,4516.000
5012.000,4755.000,4451.000
5031.000,4765.000,4507.000
4973.000,4823.000,4453.000
5003.000,4841.000,4419.000
4971.000,4714.000,4487.000
4981.000,4783.000,4490.000
5024.000,4758.000,4517.000
4980.000,4775.000,4563.000
4929.000,4876.000,4515.000
4954.000,4776.000,4508.000
5005.000,4788.000,4458.000
4988.000,4883.000,4537.000
4943.000,4808.000,4485.000
4952.000,4799.000,4519.000
4965.000,4800.000,4546.000
4969.000,4776.000,4574.000
4985.000,4787.000,4614.000
5004.000,4790.000,4518.000
4974.000,4818.000,4503.000
5003.000,4826.000,4544.000
5009.000,4857.000,4456.000
5017.000,4800.000,4503.000
4965.000,4794.000,4481.000
5051.000,4831.000,4523.000
5090.000,4823.000,4528.000
5074.000,4875.000,4475.000
5041.000,4882.000,4577.000
5027.000,4921.000,4558.000
5032.000,4871.000,4578.000
5052.000,4811.000,4542.000
5058.000,4835.000,4504.000
5042.000,4873.000,4564.000
5009.000,4922.000,4613.000
5115.000,4913.000,4578.000
5127.000,4924.000,4616.000
5184.000,4887.000,4571.000
5155.000,4908.000,4587.000
5108.000,4924.000,4604.000
5153.000,4905.000,4627.000
5133.000,4850.000,4583.000
5130.000,4847.000,4606.000
5141.000,4889.000,4570.000
5092.000,4813.000,4495.000
5141.000,4827.000,4528.000
5033.000,4867.000,4601.000
5047.000,4848.000,4598.000
5081.000,4876.000,4550.000
5154.000,4922.000,4559.000
5160.000,4846.000,4596.000
5102.000,4958.000,4574.000
5190.000,4841.000,4553.000
5175.000,4839.000,4607.000
5151.000,4931.000,4586.000
5170.000,4872.000,4599.000
5194.000,4894.000,4612.000
5155.000,4888.000,4632.000
5101.000,4863.000,4518.000
5052.000,4821.000,4552.000
5099.000,4866.000,4518.000
5124.000,4818.000,4517.000
5056.000,4786.000,4546.000
5057.000,4784.000,4530.000
5013.000,4855.000,4535.000
5029.000,4809.000,4530.000
5047.000,4750.000,4517.000
4939.000,4843.000,4548.000
4964.000,4794.000,4542.000
5010.000,4806.000,4496.000
5035.000,4823.000,4517.000
5000.000,4804.000,4519.000
5058.000,4777.000,4513.000
4966.000,4777.000,4531.000
5013.000,4830.000,4488.000
5037.000,4782.000,4443.000
5019.000,4869.000,4555.000
5015.000,4858.000,4567.000
5000.000,4845.000,4530.000
4993.000,4814.000,4504.000
4981.000,4776.000,4583.000
4979.000,4753.000,4470.000
5038.000,4819.000,4488.000
4976.000,4796.000,4457.000
5021.000,4792.000,4491.000
4965.000,4788.000,4508.000
5010.000,4813.000,4525.000
4988.000,4837.000,4531.000
5015.000,4928.000,4526.000
5054.000,4870.000,4570.000
5048.000,4828.000,4506.000
5059.000,4788.000,4512.000
5105.000,4797.000,4591.000
5019.000,4768.000,4537.000
5072.000,4777.000,4552.000
4975.000,4797.000,4535.000
5027.000,4777.000,4448.000
5031.000,4831.000,4540.000
4988.000,4784.000,4560.000
5080.000,4847.000,4454.000
5041.000,4745.000,4542.000
5006.000,4807.000,4485.000
5049.000,4827.000,4522.000
5030.000,4839.000,4539.000
5002.000,4900.000,4631.000
5051.000,4777.000,4522.000
5039.000,4844.000,4554.000
5092.000,4799.000,4538.000
5024.000,4873.000,4543.000
5018.000,4860.000,4543.000
5078.000,4841.000,4559.000
4969.000,4828.000,4564.000
5036.000,4825.000,4512.000
5085.000,4769.000,4524.000
5024.000,4849.000,4560.000
5059.000,4795.000,4511.000
5100.000,4851.000,4568.000
5072.000,4900.000,4599.000
5075.000,4754.000,4489.000
5041.000,4866.000,4542.000
5009.000,4837.000,4595.000
5018.000,4778.000,4543.000
4989.000,4853.000,4535.000
5024.000,4791.000,4636.000
5026.000,4856.000,4591.000
5050.000,4856.000,4509.000
5032.000,4839.000,4570.000
5069.000,4873.000,4610.000
5081.000,4844.000,4572.000
5052.000,4827.000,4561.000
5013.000,4890.000,4588.000
5096.000,4857.000,4585.000
5037.000,4815.000,4551.000
5022.000,4791.000,4509.000
5053.000,4905.000,4553.000
5027.000,4804.000,4525.000
5050.000,4857.000,4573.000
4986.000,4839.000,4542.000
5040.000,4922.000,4515.000
5034.000,4869.000,4544.000
5026.000,4891.000,4535.000
5008.000,4866.000,4568.000
5034.000,4847.000,4582.000
5069.000,4834.000,4565.000
5003.000,4846.000,4589.000
5097.000,4819.000,4566.000
5084.000,4854.000,4570.000
5031.000,4898.000,4568.000
5050.000,4861.000,4568.000
5055.000,4882.000,4546.000
5029.000,4893.000,4621.000
5073.000,4850.000,4593.000
5003.000,4920.000,4600.000
5112.000,4920.000,4597.000
5117.000,4844.000,4514.000
5146.000,4913.000,4603.000
5090.000,4904.000,4607.000
5081.000,4800.000,4600.000
4995.000,4873.000,4538.000
5013.000,4834.000,4525.000
5022.000,4814.000,4549.000
5065.000,4806.000,4596.000
5066.000,4811.000,4528.000
5015.000,4790.000,4487.000
5005.000,4829.000,4537.000
4997.000,4907.000,4559.000
5076.000,4870.000,4528.000
5093.000,4809.000,4582.000
4964.000,4875.000,4556.000
5030.000,4864.000,4476.000
5047.000,4821.000,4603.000
5007.000,4845.000,4593.000
4966.000,4853.000,4542.000
5052.000,4791.000,4560.000
5080.000,4929.000,4558.000
5015.000,4875.000,4494.000
4986.000,4856.000,4522.000
5017.000,4824.000,4567.000
5036.000,4849.000,4535.000
5053.000,4822.000,4558.000
4989.000,4870.000,4524.000
5009.000,4803.000,4534.000
5007.000,4806.000,4539.000
5071.000,4890.000,4547.000
5027.000,4925.000,4546.000
4993.000,4877.000,4519.000
5005.000,4802.000,4484.000
5010.000,4779.000,4532.000
4997.000,4852.000,4499.000
5041.000,4789.000,4522.000
5096.000,4849.000,4552.000
5040.000,4790.000,4527.000
5008.000,4812.000,4517.000
5048.000,4840.000,4548.000
5027.000,4797.000,4577.000
4941.000,4778.000,4559.000
5072.000,4863.000,4491.000
5011.000,4839.000,4547.000
5062.000,4857.000,4492.000
5057.000,4801.000,4511.000
4947.000,4770.000,4474.000
4963.000,4819.000,4535.000
4968.000,4776.000,4530.000
4978.000,4853.000,4526.000
5035.000,4809.000,4498.000
4947.000,4779.000,4515.000
4917.000,4793.000,4498.000
4983.000,4779.000,4451.000
4988.000,4779.000,4513.000
5047.000,4780.000,4509.000
5030.000,4688.000,4474.000
5059.000,4808.000,4489.000
5088.000,4826.000,4552.000
5187.000,4792.000,4535.000
5060.000,4800.000,4474.000
5027.000,4737.000,4453.000
5055.000,4808.000,4542.000
5122.000,4748.000,4531.000
5042.000,4843.000,4480.000
5055.000,4825.000,4455.000
4960.000,4757.000,4407.000
4993.000,4747.000,4551.000
4990.000,4786.000,4474.000
5049.000,4799.000,4542.000
5067.000,4789.000,4498.000
5027.000,4771.000,4425.000
5033.000,4828.000,4489.000
5056.000,4795.000,4551.000
5021.000,4825.000,4518.000
5040.000,4765.000,4541.000
5034.000,4862.000,4471.000
5023.000,4836.000,4490.000
4991.000,4776.000,4527.000
5012.000,4710.000,4543.000
5039.000,4880.000,4529.000
4968.000,4806.000,4511.000
5056.000,4798.000,4532.000
4952.000,4773.000,4502.000
5010.000,4833.000,4406.000
5002.000,4791.000,4544.000
5050.000,4904.000,4486.000
5105.000,4837.000,4527.000
5028.000,4835.000,4600.000
5093.000,4847.000,4575.000
5130.000,4813.000,4522.000
5131.000,4855.000,4622.000
5092.000,4834.000,4499.000
5075.000,4828.000,4501.000
5152.000,4858.000,4618.000
5105.000,4855.000,4593.000
5116.000,4955.000,4510.000
5197.000,4898.000,4547.000
5185.000,4897.000,4615.000
5176.000,4889.000,4574.000
5205.000,4911.000,4573.000
5233.000,4933.000,4592.000
5192.000,4972.000,4626.000
5172.000,4980.000,4550.000
5131.000,4809.000,4578.000
5103.000,4836.000,4587.000
5194.000,4883.000,4513.000
5223.000,4932.000,4631.000
5161.000,4918.000,4617.000
5181.000,4911.000,4594.000
5146.000,4908.000,4622.000
5195.000,4878.000,4547.000
5145.000,4830.000,4606.000
5210.000,4843.000,4569.000
5199.000,4893.000,4543.000
5123.000,4869.000,4511.000
5119.000,4883.000,4577.000
5144.000,4944.000,4584.000
5185.000,4866.000,4563.000
5191.000,4899.000,4590.000
5123.000,4795.000,4563.000
5239.000,4897.000,4537.000
5173.000,4847.000,4578.000
5113.000,4931.000,4548.000
5146.000,4854.000,4589.000
5111.000,4862.000,4616.000
5212.000,4851.000,4617.000
5174.000,4865.000,4590.000
5123.000,4940.000,4524.000
5155.000,4949.000,4597.000
5216.000,4925.000,4659.000
5180.000,4937.000,4608.000
5271.000,4976.000,4652.000
5244.000,5001.000,4637.000
5253.000,5015.000,4626.000
5326.000,5047.000,4705.000
5324.000,4990.000,4683.000
5317.000,4985.000,4683.000
5293.000,4991.000,4704.000
5308.000,4975.000,4653.000
5283.000,4960.000,4662.000
5366.000,4976.000,4642.000
5242.000,4897.000,4589.000
5182.000,4916.000,4513.000
5150.000,4836.000,4564.000
5183.000,4827.000,4615.000
5164.000,4798.000,4541.000
5142.000,4840.000,4520.000
5114.000,4838.000,4553.000
5069.000,4807.000,4467.000
4981.000,4753.000,4519.000
5099.000,4807.000,4486.000
5040.000,4764.000,4489.000
5015.000,4747.000,4535.000
4992.000,4852.000,4427.000
5018.000,4762.000,4489.000
5093.000,4805.000,4525.000
4988.000,4752.000,4515.000
5064.000,4745.000,4464.000
4965.000,4801.000,4411.000
4937.000,4777.000,4467.000
5029.000,4724.000,4467.000
4972.000,4754.000,4479.000
4981.000,4737.000,4436.000
4962.000,4725.000,4450.000
5033.000,4752.000,4468.000
4985.000,4788.000,4487.000
5021.000,4787.000,4459.000
4979.000,4735.000,4501.000
5035.000,4771.000,4498.000
5059.000,4811.000,4534.000
5021.000,4825.000,4551.000
4952.000,4780.000,4524.000
5024.000,4756.000,4477.000
4969.000,4842.000,4557.000
4974.000,4779.000,4455.000
5081.000,4788.000,4477.000
4994.000,4836.000,4506.000
5026.000,4781.000,4448.000
4994.000,4837.000,4491.000
5020.000,4773.000,4527.000
5141.000,4803.000,4524.000
5035.000,4795.000,4539.000
5092.000,4787.000,4462.000
5123.000,4859.000,4488.000
5099.000,4799.000,4451.000
5103.000,4840.000,4513.000
5049.000,4825.000,4503.000
5150.000,4800.000,4575.000
5147.000,4836.000,4526.000
5089.000,4823.000,4518.000
5035.000,4786.000,4438.000
5066.000,4753.000,4445.000
5056.000,4759.000,4472.000
5100.000,4776.000,4434.000
5165.000,4780.000,4427.000
5063.000,4853.000,4414.000
5103.000,4723.000,4467.000
5153.000,4760.000,4494.000
5193.000,4779.000,4487.000
5158.000,4741.000,4495.000
5197.000,4749.000,4451.000
5243.000,4883.000,4458.000
5229.000,4763.000,4441.000
5218.000,4775.000,4450.000
5252.000,4780.000,4453.000
5260.000,4807.000,4441.000
5192.000,4780.000,4420.000
5225.000,4743.000,4388.000
5243.000,4780.000,4477.000
5281.000,4706.000,4469.000
5216.000,4770.000,4435.000
5191.000,4754.000,4371.000
5209.000,4772.000,4423.000
5246.000,4790.000,4388.000
5219.000,4773.000,4375.000
5197.000,4730.000,4457.000
5126.000,4734.000,4462.000
5207.000,4720.000,4388.000
5166.000,4710.000,4430.000
5169.000,4737.000,4429.000
5152.000,4696.000,4440.000
5139.000,4694.000,4406.000
5080.000,4704.000,4410.000
5103.000,4632.000,4426.000
5140.000,4640.000,4329.000
5055.000,4653.000,4359.000
4996.000,4672.000,4317.000
4966.000,4690.000,4308.000
5002.000,4635.000,4403.000
5032.000,4627.000,4324.000
4990.000,4653.000,4310.000
4973.000,4650.000,4343.000
5020.000,4600.000,4317.000
4989.000,4614.000,4307.000
4963.000,4662.000,4337.000
5000.000,4675.000,4325.000
4939.000,4642.000,4370.000
5004.000,4623.000,4291.000
4980.000,4663.000,4333.000
4985.000,4674.000,4358.000
5008.000,4726.000,4310.000
5042.000,4636.000,4457.000
5061.000,4738.000,4355.000
5103.000,4762.000,4401.000
5193.000,4718.000,4410.000
5303.000,4772.000,4422.000
5311.000,4772.000,4430.000
5315.000,4753.000,4417.000
5452.000,4742.000,4395.000
5349.000,4703.000,4390.000
5549.000,4723.000,4357.000
5532.000,4776.000,4419.000
5583.000,4729.000,4429.000
5554.000,4676.000,4404.000
5546.000,4754.000,4389.000
5583.000,4743.000,4425.000
5523.000,4839.000,4336.000
5446.000,4700.000,4363.000
5380.000,4636.000,4291.000
5339.000,4632.000,4334.000
5235.000,4622.000,4238.000
5197.000,4655.000,4323.000
5098.000,4633.000,4292.000
5059.000,4594.000,4290.000
5082.000,4529.000,4271.000
5112.000,4637.000,4264.000
5042.000,4654.000,4347.000
5037.000,4607.000,4253.000
4897.000,4597.000,4283.000
5022.000,4599.000,4278.000
4982.000,4598.000,4282.000
4960.000,4531.000,4305.000
4896.000,4557.000,4297.000
4948.000,4619.000,4332.000
4943.000,4608.000,4324.000
4900.000,4540.000,4282.000
4906.000,4472.000,4258.000
4863.000,4509.000,4328.000
4862.000,4549.000,4288.000
4846.000,4581.000,4313.000
4914.000,4539.000,4293.000
4853.000,4554.000,4282.000
4799.000,4506.000,4230.000
4783.000,4537.000,4266.000
4821.000,4501.000,4183.000
4775.000,4537.000,4212.000
4757.000,4510.000,4232.000
4714.000,4461.000,4208.000
4754.000,4520.000,4211.000
4736.000,4521.000,4146.000
4687.000,4490.000,4195.000
4723.000,4470.000,4260.000
4733.000,4500.000,4222.000
4707.000,4448.000,4119.000
4718.000,4446.000,4165.000
4696.000,4482.000,4229.000
4681.000,4532.000,4167.000
4731.000,4432.000,4141.000
4685.000,4460.000,4149.000
4628.000,4451.000,4189.000
4704.000,4442.000,4203.000
4617.000,4454.000,4166.000
4666.000,4449.000,4180.000
4584.000,4439.000,4180.000
4591.000,4414.000,4136.000
4663.000,4449.000,4152.000
4648.000,4381.000,4102.000
4683.000,4467.000,4160.000
4674.000,4420.000,4221.000
4588.000,4394.000,4115.000
4677.000,4442.000,4175.000
4621.000,4422.000,4133.000
4632.000,4434.000,4219.000
4693.000,4369.000,4135.000
4609.000,4423.000,4141.000
4653.000,4349.000,4090.000
4603.000,4418.000,4093.000
4596.000,4369.000,4077.000
4594.000,4370.000,4129.000
4641.000,4345.000,4094.000
4604.000,4409.000,4062.000
4624.000,4376.000,4062.000
4660.000,4398.000,4053.000
4602.000,4371.000,4034.000
4481.000,4328.000,4043.000
4577.000,4279.000,4111.000
4529.000,4377.000,4048.000
4598.000,4364.000,4073.000
4574.000,4362.000,4023.000
4570.000,4316.000,4072.000
4556.000,4355.000,4043.000
4504.000,4299.000,4048.000
4577.000,4342.000,4049.000
4546.000,4296.000,4026.000
4525.000,4302.000,4013.000
4552.000,4325.000,4087.000
4538.000,4270.000,4005.000
4470.000,4244.000,4053.000
4488.000,4236.000,4007.000
4531.000,4254.000,4018.000
4445.000,4217.000,4021.000
4537.000,4215.000,3998.000
4499.000,4180.000,3984.000
4396.000,4170.000,3959.000
4409.000,4186.000,3960.000
4360.000,4157.000,3917.000
4417.000,4141.000,3940.000
4393.000,4154.000,3854.000
4371.000,4115.000,3928.000
4387.000,4178.000,3887.000
4385.000,4144.000,3860.000
4425.000,4143.000,3894.000
4384.000,4182.000,3847.000
4448.000,4194.000,3888.000
4396.000,4155.000,3897.000
4454.000,4131.000,3954.000
4432.000,4174.000,3893.000
4432.000,4117.000,3874.000
4477.000,4178.000,3902.000
4432.000,4185.000,3902.000
4403.000,4152.000,3851.000
4460.000,4191.000,3893.000
4391.000,4177.000,3914.000
4387.000,4123.000,3894.000
4453.000,4158.000,3797.000
4385.000,4112.000,3850.000
4404.000,4028.000,3888.000
4448.000,4142.000,3807.000
4402.000,4052.000,3887.000
4436.000,4173.000,3854.000
4420.000,4043.000,3860.000
4424.000,4097.000,3770.000
4432.000,4036.000,3842.000
4443.000,4055.000,3785.000
4430.000,4019.000,3776.000
4413.000,4034.000,3750.000
4349.000,4046.000,3783.000
4456.000,4011.000,3775.000
4516.000,3993.000,3757.000
4472.000,4010.000,3731.000
4575.000,3997.000,3685.000
4563.000,4021.000,3764.000
4648.000,4059.000,3673.000
4762.000,4062.000,3787.000
4873.000,4146.000,3768.000
4928.000,4159.000,3729.000
5070.000,4192.000,3804.000
5217.000,4197.000,3844.000
5332.000,4275.000,3863.000
5491.000,4200.000,3857.000
5498.000,4191.000,3872.000
5566.000,4188.000,3819.000
5601.000,4203.000,3866.000
5442.000,4228.000,3851.000
5456.000,4215.000,3815.000
5287.000,4098.000,3797.000
5157.000,4046.000,3770.000
5001.000,4104.000,3776.000
4839.000,4047.000,3736.000
4780.000,4066.000,3724.000
4657.000,4018.000,3711.000
4604.000,3967.000,3672.000
4557.000,3976.000,3637.000
4559.000,3971.000,3643.000
4554.000,3963.000,3686.000
4569.000,3895.000,3656.000
4433.000,3895.000,3690.000
4473.000,3900.000,3608.000
4438.000,3844.000,3641.000
4406.000,3916.000,3602.000
4450.000,3931.000,3629.000
4477.000,3870.000,3614.000
4481.000,3922.000,3615.000
4516.000,3917.000,3617.000
4501.000,3946.000,3587.000
4549.000,3942.000,3601.000
4663.000,3883.000,3632.000
4690.000,3969.000,3703.000
4814.000,3967.000,3640.000
4837.000,3958.000,3672.000
4959.000,3973.000,3649.000
5093.000,4027.000,3605.000
5199.000,4077.000,3626.000
5271.000,3992.000,3721.000
5389.000,4078.000,3683.000
5336.000,4041.000,3706.000
5460.000,4103.000,3739.000
5448.000,4091.000,3659.000
5494.000,4026.000,3667.000
5406.000,4027.000,3741.000
5357.000,4040.000,3699.000
5309.000,4089.000,3674.000
5263.000,4038.000,3686.000
5088.000,4013.000,3658.000
4882.000,4016.000,3667.000
4799.000,3946.000,3624.000
4627.000,3918.000,3562.000
4484.000,3858.000,3587.000
4447.000,3834.000,3578.000
4340.000,3785.000,3620.000
4227.000,3809.000,3500.000
4204.000,3759.000,3520.000
4185.000,3810.000,3522.000
4127.000,3756.000,3535.000
4068.000,3756.000,3482.000
4047.000,3754.000,3502.000
3995.000,3763.000,3516.000
3972.000,3712.000,3482.000
3977.000,3784.000,3475.000
3955.000,3801.000,3495.000
3989.000,3699.000,3521.000
3990.000,3734.000,3529.000
3983.000,3727.000,3538.000
3997.000,3703.000,3509.000
3953.000,3750.000,3522.000
3918.000,3778.000,3524.000
3971.000,3731.000,3486.000
3839.000,3717.000,3496.000
3902.000,3701.000,3541.000
3965.000,3716.000,3450.000
3841.000,3661.000,3477.000
3889.000,3704.000,3464.000
3868.000,3728.000,3536.000
3959.000,3720.000,3520.000
3909.000,3768.000,3514.000
3901.000,3728.000,3519.000
3924.000,3719.000,3489.000
3913.000,3729.000,3495.000
3900.000,3752.000,3543.000
3945.000,3713.000,3530.000
3886.000,3716.000,3509.000
3926.000,3719.000,3500.000
3931.000,3677.000,3449.000
3894.000,3681.000,3486.000
3879.000,3665.000,3492.000
3931.000,3604.000,3492.000
3876.000,3716.000,3451.000
3977.000,3713.000,3462.000
3919.000,3706.000,3416.000
3955.000,3771.000,3488.000
4074.000,3783.000,3497.000
4052.000,3754.000,3516.000
4038.000,3743.000,3511.000
4005.000,3712.000,3484.000
4011.000,3713.000,3489.000
4003.000,3704.000,3511.000
4064.000,3710.000,3490.000
4049.000,3701.000,3504.000
4027.000,3661.000,3518.000
4035.000,3703.000,3452.000
4098.000,3697.000,3458.000
4152.000,3720.000,3487.000
4194.000,3731.000,3474.000
4265.000,3729.000,3534.000
4377.000,3749.000,3481.000
4404.000,3792.000,3515.000
4376.000,3753.000,3525.000
4501.000,3855.000,3557.000
4571.000,3839.000,3603.000
4499.000,3813.000,3558.000
4554.000,3869.000,3588.000
4467.000,3832.000,3529.000
4466.000,3846.000,3520.000
4436.000,3774.000,3588.000
4370.000,3802.000,3553.000
4469.000,3788.000,3490.000
4428.000,3812.000,3537.000
4402.000,3746.000,3483.000
4492.000,3832.000,3505.000
4441.000,3747.000,3434.000
4492.000,3781.000,3485.000
4402.000,3760.000,3521.000
4428.000,3747.000,3471.000
4347.000,3792.000,3494.000
4253.000,3736.000,3498.000
4276.000,3723.000,3510.000
4205.000,3742.000,3535.000
4194.000,3755.000,3498.000
4149.000,3734.000,3500.000
4147.000,3805.000,3452.000
4084.000,3716.000,3520.000
4103.000,3691.000,3492.000
4159.000,3679.000,3500.000
4162.000,3763.000,3507.000
4110.000,3667.000,3444.000
4111.000,3714.000,3452.000
4096.000,3691.000,3462.000
4052.000,3702.000,3481.000
4136.000,3637.000,3509.000
4074.000,3708.000,3422.000
4020.000,3657.000,3446.000
4047.000,3664.000,3463.000
4043.000,3730.000,3460.000
4071.000,3741.000,3461.000
3997.000,3705.000,3517.000
4012.000,3675.000,3469.000
4019.000,3675.000,3458.000
4024.000,3676.000,3501.000
4031.000,3683.000,3477.000
4083.000,3705.000,3489.000
4027.000,3694.000,3482.000
3982.000,3671.000,3471.000
4006.000,3669.000,3488.000
3987.000,3697.000,3476.000
4009.000,3649.000,3487.000
3975.000,3700.000,3427.000
3946.000,3633.000,3444.000
3947.000,3677.000,3396.000
3961.000,3630.000,3403.000
3941.000,3671.000,3423.000
3894.000,3590.000,3411.000
3840.000,3636.000,3392.000
3870.000,3665.000,3407.000
3914.000,3582.000,3387.000
3902.000,3620.000,3390.000
3831.000,3602.000,3423.000
3872.000,3611.000,3375.000
3828.000,3601.000,3356.000
3833.000,3588.000,3395.000
3861.000,3551.000,3390.000
3818.000,3587.000,3392.000
3804.000,3616.000,3422.000
3828.000,3644.000,3421.000
3868.000,3643.000,3407.000
3917.000,3657.000,3370.000
3931.000,3669.000,3428.000
3902.000,3645.000,3408.000
3871.000,3617.000,3422.000
3841.000,3621.000,3405.000
3821.000,3580.000,3436.000
3825.000,3573.000,3357.000
3798.000,3585.000,3403.000
3795.000,3582.000,3363.000
3739.000,3564.000,3332.000
3720.000,3491.000,3352.000
3711.000,3442.000,3336.000
3753.000,3585.000,3315.000
3677.000,3472.000,3274.000
3707.000,3557.000,3322.000
3637.000,3499.000,3303.000
3672.000,3478.000,3308.000
3679.000,3491.000,3301.000
3664.000,3517.000,3303.000
3660.000,3494.000,3288.000
3665.000,3439.000,3294.000
3686.000,3491.000,3269.000
3657.000,3488.000,3257.000
3667.000,3468.000,3275.000
3638.000,3476.000,3270.000
3633.000,3468.000,3266.000
3610.000,3513.000,3290.000
3690.000,3477.000,3306.000
3697.000,3461.000,3276.000
3639.000,3413.000,3246.000
3651.000,3388.000,3228.000
3646.000,3443.000,3257.000
3607.000,3432.000,3279.000
3603.000,3481.000,3215.000
3661.000,3464.000,3220.000
3609.000,3436.000,3239.000
3623.000,3408.000,3289.000
3665.000,3442.000,3302.000
3613.000,3521.000,3237.000
3626.000,3438.000,3181.000
3622.000,3470.000,3237.000
3624.000,3390.000,3207.000
3603.000,3407.000,3213.000
3597.000,3410.000,3211.000
3539.000,3433.000,3184.000
3645.000,3419.000,3202.000
3563.000,3365.000,3193.000
3529.000,3404.000,3183.000
3574.000,3399.000,3210.000
3558.000,3344.000,3171.000
3511.000,3380.000,3127.000
3555.000,3395.000,3175.000
3534.000,3357.000,3217.000
3568.000,3355.000,3141.000
3579.000,3323.000,3132.000
3586.000,3330.000,3133.000
3535.000,3340.000,3147.000
3564.000,3361.000,3157.000
3580.000,3395.000,3145.000
3607.000,3299.000,3146.000
3649.000,3336.000,3154.000
3589.000,3377.000,3182.000
3603.000,3319.000,3182.000
3605.000,3380.000,3162.000
3570.000,3369.000,3203.000
3520.000,3368.000,3149.000
3506.000,3374.000,3179.000
3511.000,3293.000,3196.000
3514.000,3330.000,3161.000
3508.000,3342.000,3169.000
3477.000,3364.000,3157.000
3444.000,3334.000,3164.000
3515.000,3290.000,3115.000
3422.000,3308.000,3119.000
3423.000,3333.000,3125.000
3446.000,3324.000,3108.000
3439.000,3268.000,3150.000
3403.000,3310.000,3108.000
3469.000,3316.000,3052.000
3397.000,3296.000,3136.000
3440.000,3294.000,3104.000
3401.000,3227.000,3125.000
3416.000,3250.000,3062.000
3403.000,3282.000,3091.000
3368.000,3267.000,3127.000
3376.000,3225.000,3105.000
3437.000,3233.000,3068.000
3398.000,3263.000,3066.000
3404.000,3226.000,3055.000
3362.000,3205.000,3037.000
3412.000,3245.000,3061.000
3423.000,3168.000,3014.000
3417.000,3203.000,3042.000
3405.000,3238.000,3048.000
3416.000,3226.000,3061.000
3492.000,3240.000,3082.000
3481.000,3218.000,3086.000
3424.000,3285.000,3099.000
3498.000,3330.000,3086.000
3533.000,3269.000,3094.000
3518.000,3325.000,3136.000
3490.000,3291.000,3085.000
3513.000,3324.000,3117.000
3534.000,3333.000,3126.000
3521.000,3293.000,3135.000
3559.000,3297.000,3195.000
3599.000,3341.000,3131.000
3571.000,3327.000,3122.000
3562.000,3316.000,3078.000
3593.000,3301.000,3167.000
3541.000,3324.000,3161.000
3563.000,3345.000,3104.000
3600.000,3320.000,3184.000
3583.000,3289.000,3129.000
3572.000,3345.000,3099.000
3530.000,3291.000,3130.000
3569.000,3290.000,3132.000
3589.000,3297.000,3139.000
3511.000,3334.000,3093.000
3498.000,3241.000,3060.000
3438.000,3239.000,3078.000
3504.000,3265.000,3070.000
3433.000,3262.000,3074.000
3427.000,3264.000,3066.000
3430.000,3189.000,3065.000
3346.000,3220.000,3054.000
3453.000,3173.000,3016.000
3414.000,3206.000,2993.000
3364.000,3154.000,2998.000
3346.000,3188.000,3031.000
3292.000,3131.000,2973.000
3356.000,3118.000,2951.000
3250.000,3080.000,2918.000
3228.000,3116.000,2963.000
3213.000,3094.000,2920.000
3168.000,3098.000,2907.000
3179.000,3059.000,2869.000
3245.000,3069.000,2934.000
3117.000,3031.000,2861.000
3159.000,3029.000,2836.000
3176.000,3029.000,2846.000
3203.000,3028.000,2871.000
3192.000,3033.000,2854.000
3142.000,3009.000,2866.000
3167.000,3026.000,2848.000
3119.000,2995.000,2883.000
3139.000,2998.000,2833.000
3125.000,2995.000,2831.000
3178.000,2998.000,2823.000
3132.000,3063.000,2831.000
3110.000,2978.000,2838.000
3100.000,2985.000,2851.000
3094.000,2940.000,2823.000
3095.000,2982.000,2783.000
3121.000,2970.000,2763.000
3031.000,2935.000,2776.000
3030.000,2898.000,2750.000
3037.000,2964.000,2756.000
3051.000,2940.000,2811.000
3013.000,2924.000,2759.000
3041.000,2904.000,2775.000
2989.000,2871.000,2754.000
3026.000,2914.000,2715.000
2996.000,2877.000,2709.000
2985.000,2825.000,2719.000
2959.000,2881.000,2738.000
2940.000,2848.000,2690.000
2927.000,2800.000,2691.000
2959.000,2801.000,2666.000
2939.000,2861.000,2697.000
2981.000,2832.000,2707.000
2988.000,2815.000,2718.000
2942.000,2838.000,2704.000
2942.000,2771.000,2683.000
2887.000,2837.000,2677.000
2903.000,2794.000,2635.000
2918.000,2821.000,2621.000
2872.000,2809.000,2647.000
2932.000,2790.000,2612.000
2868.000,2796.000,2634.000
2892.000,2735.000,2637.000
2821.000,2771.000,2644.000
2877.000,2776.000,2621.000
2870.000,2763.000,2628.000
2883.000,2730.000,2585.000
2839.000,2771.000,2646.000
2866.000,2768.000,2627.000
2920.000,2747.000,2611.000
2877.000,2794.000,2628.000
2909.000,2767.000,2614.000
2885.000,2774.000,2611.000
2857.000,2729.000,2606.000
2927.000,2758.000,2625.000
2867.000,2758.000,2640.000
2855.000,2776.000,2589.000
2819.000,2725.000,2589.000
2836.000,2753.000,2606.000
2808.000,2735.000,2579.000
2829.000,2732.000,2544.000
2850.000,2716.000,2540.000
2842.000,2704.000,2562.000
2813.000,2687.000,2538.000
2726.000,2709.000,2549.000
2823.000,2672.000,2537.000
2798.000,2652.000,2566.000
2780.000,2682.000,2503.000
2822.000,2672.000,2509.000
2760.000,2603.000,2514.000
2741.000,2634.000,2476.000
2720.000,2626.000,2461.000
2751.000,2626.000,2490.000
2801.000,2621.000,2490.000
2737.000,2620.000,2495.000
2698.000,2588.000,2473.000
2751.000,2591.000,2420.000
2754.000,2629.000,2477.000
2745.000,2564.000,2427.000
2680.000,2534.000,2432.000
2695.000,2519.000,2404.000
2709.000,2536.000,2399.000
2715.000,2529.000,2418.000
2714.000,2530.000,2372.000
2655.000,2530.000,2431.000
2724.000,2543.000,2412.000
2701.000,2551.000,2419.000
2695.000,2565.000,2417.000
2696.000,2545.000,2402.000
2691.000,2518.000,2395.000
2700.000,2570.000,2374.000
2730.000,2484.000,2385.000
2713.000,2520.000,2382.000
2718.000,2518.000,2397.000
2708.000,2494.000,2361.000
2754.000,2488.000,2372.000
2749.000,2534.000,2400.000
2752.000,2487.000,2378.000
2712.000,2504.000,2347.000
2761.000,2510.000,2387.000
2797.000,2525.000,2397.000
2808.000,2536.000,2381.000
2788.000,2481.000,2360.000
2813.000,2482.000,2381.000
2803.000,2491.000,2383.000
2799.000,2459.000,2343.000
2855.000,2489.000,2337.000
2864.000,2476.000,2349.000
2931.000,2475.000,2332.000
2928.000,2464.000,2322.000
2956.000,2465.000,2342.000
3040.000,2501.000,2333.000
3104.000,2516.000,2356.000
3125.000,2523.000,2334.000
3191.000,2523.000,2358.000
3319.000,2576.000,2345.000
3385.000,2522.000,2352.000
3438.000,2571.000,2344.000
3565.000,2603.000,2342.000
3650.000,2573.000,2352.000
3716.000,2562.000,2359.000
3890.000,2629.000,2349.000
3969.000,2634.000,2362.000
4048.000,2639.000,2379.000
4155.000,2710.000,2405.000
4326.000,2716.000,2427.000
4536.000,2707.000,2463.000
4582.000,2754.000,2435.000
4698.000,2749.000,2425.000
4945.000,2848.000,2449.000
5076.000,2805.000,2461.000
5169.000,2884.000,2485.000
5323.000,2858.000,2533.000
5380.000,2866.000,2494.000
5469.000,2924.000,2505.000
5461.000,2931.000,2512.000
5447.000,2864.000,2502.000
5349.000,2883.000,2542.000
5257.000,2858.000,2437.000
5032.000,2830.000,2514.000
4864.000,2788.000,2424.000
4701.000,2767.000,2396.000
4499.000,2679.000,2406.000
4274.000,2641.000,2365.000
4104.000,2623.000,2320.000
3934.000,2600.000,2321.000
3780.000,2540.000,2292.000
3625.000,2495.000,2287.000
3410.000,2477.000,2250.000
3323.000,2388.000,2242.000
3200.000,2398.000,2226.000
3119.000,2359.000,2174.000
2992.000,2376.000,2182.000
2902.000,2311.000,2184.000
2896.000,2330.000,2147.000
2774.000,2286.000,2163.000
2731.000,2278.000,2146.000
2701.000,2242.000,2139.000
2675.000,2255.000,2136.000
2628.000,2215.000,2133.000
2581.000,2234.000,2119.000
2580.000,2184.000,2098.000
2530.000,2217.000,2066.000
2502.000,2210.000,2099.000
2494.000,2225.000,2087.000
2486.000,2185.000,2077.000
2477.000,2188.000,2044.000
2417.000,2187.000,2054.000
2427.000,2162.000,2059.000
2455.000,2158.000,2047.000
2390.000,2168.000,2051.000
2438.000,2138.000,2060.000
2441.000,2162.000,2043.000
2412.000,2141.000,2053.000
2420.000,2151.000,2052.000
2397.000,2171.000,2040.000
2383.000,2169.000,2021.000
2364.000,2127.000,2068.000
2412.000,2118.000,2048.000
2385.000,2169.000,2040.000
2374.000,2171.000,2085.000
2375.000,2161.000,2057.000
2336.000,2141.000,2063.000
2359.000,2139.000,2035.000
2323.000,2142.000,2016.000
2323.000,2149.000,2041.000
2301.000,2120.000,2044.000
2314.000,2137.000,2050.000
2302.000,2136.000,2041.000
2267.000,2129.000,2055.000
2269.000,2111.000,2037.000
2228.000,2095.000,2028.000
2234.000,2130.000,2015.000
2208.000,2083.000,2062.000
2200.000,2115.000,2023.000
2223.000,2106.000,2034.000
2198.000,2114.000,2022.000
2211.000,2109.000,2021.000
2190.000,2114.000,1996.000
2173.000,2084.000,1989.000
2181.000,2093.000,1993.000
2179.000,2116.000,2005.000
2168.000,2115.000,1995.000
2204.000,2095.000,2037.000
2176.000,2096.000,2030.000
2198.000,2109.000,1973.000
2155.000,2107.000,2035.000
2187.000,2102.000,2048.000
2212.000,2104.000,2056.000
2196.000,2097.000,2053.000
2175.000,2117.000,2035.000
2202.000,2107.000,2040.000
2180.000,2111.000,2035.000
2200.000,2098.000,2040.000
2190.000,2077.000,2016.000
2157.000,2127.000,2047.000
2149.000,2108.000,2037.000
2171.000,2128.000,2036.000
2164.000,2054.000,2001.000
2172.000,2086.000,2006.000
2156.000,2083.000,1993.000
2151.000,2077.000,2026.000
2150.000,2077.000,2017.000
2124.000,2079.000,2016.000
2109.000,2091.000,2024.000
2140.000,2081.000,1980.000
2169.000,2057.000,2001.000
2144.000,2058.000,1991.000
2131.000,2076.000,1980.000
2120.000,2073.000,1979.000
2103.000,2055.000,1991.000
2119.000,2050.000,1962.000
2094.000,2048.000,1972.000
2089.000,2044.000,1963.000
2071.000,2042.000,1959.000
2081.000,2033.000,1956.000
2086.000,2069.000,1966.000
2113.000,2030.000,1971.000
2072.000,2034.000,1957.000
2086.000,2061.000,1980.000
2107.000,2061.000,1968.000
2102.000,2037.000,1982.000
2102.000,2048.000,1977.000
2079.000,2040.000,1971.000
2126.000,2089.000,1988.000
2110.000,2047.000,1981.000
2120.000,2063.000,1970.000
2128.000,2051.000,2001.000
2150.000,2059.000,1997.000
2131.000,2073.000,1977.000
2104.000,2078.000,1971.000
2115.000,2057.000,2019.000
2131.000,2086.000,1992.000
2127.000,2039.000,1986.000
2113.000,2083.000,1974.000
2096.000,2093.000,1972.000
2107.000,2029.000,1973.000
2103.000,2049.000,1984.000
2126.000,2076.000,2008.000
2120.000,2106.000,1964.000
2093.000,2064.000,1976.000
2120.000,2067.000,1977.000
2077.000,2049.000,1963.000
2148.000,2042.000,1949.000
2090.000,2028.000,1937.000
2111.000,2063.000,1975.000
2084.000,2056.000,1954.000
2084.000,2032.000,1969.000
2121.000,2035.000,1957.000
2101.000,2044.000,1950.000
2072.000,2039.000,1967.000
2069.000,1997.000,1954.000
2073.000,2023.000,1969.000
2078.000,2058.000,1970.000
2042.000,2020.000,1935.000
2054.000,2022.000,1948.000
2076.000,2017.000,1957.000
2051.000,2013.000,1953.000
2062.000,2031.000,1945.000
2069.000,2003.000,1981.000
2062.000,2002.000,1955.000
2115.000,2020.000,1977.000
2063.000,2007.000,1975.000
2079.000,2038.000,1947.000
2113.000,2024.000,1955.000
2082.000,2010.000,1952.000
2056.000,2033.000,1940.000
2107.000,2030.000,1961.000
2076.000,2024.000,1969.000
2092.000,2058.000,1985.000
2099.000,2055.000,1961.000
2077.000,2044.000,1948.000
2097.000,2036.000,1979.000
2113.000,2028.000,1953.000
2094.000,2048.000,1981.000
2099.000,2034.000,1971.000
2095.000,2078.000,2010.000
2104.000,2075.000,1971.000
2138.000,2065.000,1985.000
2093.000,2052.000,1988.000
2111.000,2063.000,1986.000
2130.000,2056.000,1984.000
2099.000,2051.000,1983.000
2088.000,2082.000,1964.000
2109.000,2052.000,1963.000
2079.000,2037.000,1978.000
2065.000,2039.000,1983.000
2097.000,2031.000,1950.000
2056.000,2013.000,1953.000
2071.000,2019.000,1953.000
2078.000,2043.000,1946.000
2087.000,2017.000,1932.000
2080.000,2007.000,1944.000
2066.000,2023.000,1921.000
2077.000,1980.000,1954.000
2062.000,2025.000,1949.000
2096.000,1987.000,1971.000
2044.000,2023.000,1938.000
2064.000,2013.000,1933.000
2068.000,2002.000,1944.000
2064.000,2010.000,1952.000
2042.000,2039.000,1966.000
2045.000,2040.000,1947.000
2066.000,2048.000,1957.000
2056.000,2006.000,1943.000
2086.000,2020.000,1982.000
2080.000,2010.000,1960.000
2100.000,2053.000,1949.000
2104.000,2035.000,1962.000
2078.000,2048.000,1960.000
2105.000,2073.000,1947.000
2066.000,2026.000,1961.000
2086.000,2027.000,1983.000
2141.000,2008.000,1950.000
2098.000,2035.000,1960.000
2089.000,2036.000,1978.000
2062.000,2033.000,1953.000
2114.000,2036.000,1983.000
2055.000,2032.000,1926.000
2063.000,2036.000,1952.000
2093.000,2041.000,1975.000
2051.000,2027.000,1993.000
2076.000,2016.000,1953.000
2043.000,2008.000,1953.000
2035.000,2013.000,1946.000
2034.000,2027.000,1928.000
2072.000,1987.000,1961.000
2042.000,2014.000,1924.000
2028.000,2025.000,1914.000
2023.000,1998.000,1937.000
2032.000,1978.000,1919.000
2059.000,2000.000,1936.000
2059.000,1996.000,1927.000
2020.000,2006.000,1939.000
2027.000,2002.000,1895.000
2033.000,1977.000,1936.000
2041.000,2002.000,1924.000
2046.000,1984.000,1942.000
2038.000,1965.000,1904.000
2043.000,1982.000,1960.000
2060.000,2004.000,1967.000
2037.000,2014.000,1962.000
2058.000,1989.000,1943.000
2058.000,2025.000,1906.000
2050.000,2021.000,1963.000
2048.000,2010.000,1946.000
2079.000,2011.000,1967.000
2085.000,2030.000,1923.000
2077.000,2023.000,1960.000
2082.000,2008.000,1947.000
2048.000,2002.000,1918.000
2068.000,2038.000,1943.000
2049.000,1998.000,1921.000
2059.000,2006.000,1940.000
2048.000,1986.000,1942.000
2037.000,2000.000,1932.000
2067.000,2002.000,1927.000
2043.000,1976.000,1920.000
2035.000,1975.000,1902.000
2010.000,1966.000,1917.000
2003.000,1957.000,1909.000
2030.000,1971.000,1951.000
2007.000,1979.000,1926.000
1998.000,1985.000,1906.000
1995.000,1972.000,1902.000
2004.000,2001.000,1899.000
1987.000,1978.000,1885.000
1975.000,1981.000,1886.000
1982.000,1982.000,1932.000
1994.000,1985.000,1918.000
1983.000,1975.000,1915.000
1972.000,1944.000,1899.000
2013.000,1953.000,1894.000
1984.000,1973.000,1900.000
1972.000,1983.000,1912.000
1993.000,1914.000,1902.000
1987.000,1972.000,1879.000
2012.000,1975.000,1852.000
2002.000,1964.000,1896.000
1998.000,1954.000,1895.000
2011.000,1973.000,1903.000
1998.000,1965.000,1891.000
2009.000,1947.000,1894.000
1983.000,1938.000,1905.000
2018.000,1953.000,1927.000
2011.000,1970.000,1919.000
1995.000,1924.000,1904.000
2025.000,1999.000,1879.000
2002.000,1932.000,1880.000
2033.000,1955.000,1908.000
1961.000,1945.000,1875.000
1976.000,1931.000,1883.000
1985.000,1941.000,1877.000
1980.000,1934.000,1876.000
1995.000,1938.000,1859.000
1922.000,1909.000,1852.000
1955.000,1934.000,1859.000
1963.000,1931.000,1846.000
1956.000,1914.000,1846.000
1931.000,1926.000,1866.000
1964.000,1902.000,1845.000
1941.000,1920.000,1850.000
1919.000,1915.000,1871.000
1944.000,1878.000,1846.000
1922.000,1931.000,1847.000
1914.000,1906.000,1831.000
1936.000,1844.000,1805.000
1881.000,1891.000,1799.000
1933.000,1863.000,1815.000
1940.000,1890.000,1788.000
1905.000,1889.000,1819.000
1916.000,1860.000,1811.000
1884.000,1876.000,1815.000
1907.000,1888.000,1799.000
1912.000,1869.000,1791.000
1902.000,1845.000,1788.000
1883.000,1864.000,1766.000
1866.000,1873.000,1831.000
1898.000,1863.000,1808.000
1898.000,1867.000,1786.000
1897.000,1871.000,1786.000
1913.000,1869.000,1791.000
1896.000,1885.000,1796.000
1935.000,1881.000,1815.000
1911.000,1883.000,1827.000
1883.000,1851.000,1804.000
1880.000,1869.000,1797.000
1910.000,1886.000,1818.000
1900.000,1855.000,1824.000
1895.000,1872.000,1826.000
1911.000,1851.000,1792.000
1890.000,1852.000,1812.000
1899.000,1845.000,1805.000
1872.000,1856.000,1813.000
1904.000,1844.000,1798.000
1881.000,1839.000,1786.000
1864.000,1830.000,1802.000
1890.000,1845.000,1783.000
1881.000,1823.000,1795.000
1860.000,1826.000,1790.000
1892.000,1832.000,1823.000
1854.000,1826.000,1775.000
1865.000,1843.000,1783.000
1854.000,1823.000,1794.000
1851.000,1827.000,1754.000
1838.000,1821.000,1750.000
1841.000,1832.000,1742.000
1833.000,1814.000,1748.000
1854.000,1791.000,1745.000
1852.000,1799.000,1761.000
1823.000,1815.000,1768.000
1815.000,1799.000,1757.000
1799.000,1797.000,1725.000
1798.000,1775.000,1749.000
1787.000,1794.000,1727.000
1804.000,1801.000,1703.000
1817.000,1788.000,1732.000
1825.000,1794.000,1714.000
1800.000,1792.000,1726.000
1791.000,1758.000,1696.000
1824.000,1778.000,1714.000
1802.000,1756.000,1706.000
1800.000,1753.000,1727.000
1799.000,1793.000,1739.000
1814.000,1767.000,1720.000
1792.000,1767.000,1735.000
1807.000,1748.000,1726.000
1794.000,1786.000,1707.000
1801.000,1803.000,1740.000
1809.000,1777.000,1710.000
1797.000,1765.000,1705.000
1804.000,1757.000,1709.000
1808.000,1771.000,1717.000
1810.000,1743.000,1714.000
1774.000,1763.000,1699.000
1779.000,1768.000,1704.000
1791.000,1751.000,1725.000
1796.000,1757.000,1710.000
1766.000,1774.000,1681.000
1768.000,1769.000,1710.000
1755.000,1750.000,1713.000
1768.000,1751.000,1673.000
1783.000,1748.000,1682.000
1755.000,1734.000,1670.000
1739.000,1740.000,1678.000
1771.000,1737.000,1706.000
1763.000,1747.000,1698.000
1781.000,1732.000,1690.000
1755.000,1723.000,1670.000
1740.000,1732.000,1667.000
1738.000,1710.000,1684.000
1757.000,1717.000,1661.000
1704.000,1705.000,1660.000
1751.000,1731.000,1672.000
1709.000,1713.000,1653.000
1730.000,1745.000,1654.000
1727.000,1661.000,1656.000
1733.000,1704.000,1637.000
1718.000,1693.000,1657.000
1720.000,1692.000,1646.000
1703.000,1685.000,1630.000
1681.000,1680.000,1651.000
1696.000,1686.000,1638.000
1700.000,1682.000,1635.000
1687.000,1664.000,1634.000
1695.000,1669.000,1631.000
1684.000,1678.000,1634.000
1682.000,1666.000,1617.000
1686.000,1663.000,1627.000
1674.000,1670.000,1630.000
1701.000,1674.000,1639.000
1680.000,1654.000,1611.000
1684.000,1639.000,1634.000
1679.000,1675.000,1609.000
1671.000,1644.000,1639.000
1694.000,1660.000,1627.000
1681.000,1670.000,1615.000
1677.000,1670.000,1611.000
1701.000,1649.000,1627.000
1682.000,1653.000,1623.000
1674.000,1659.000,1624.000
1684.000,1652.000,1603.000
1664.000,1643.000,1595.000
1688.000,1651.000,1616.000
1668.000,1647.000,1610.000
1667.000,1649.000,1578.000
1672.000,1643.000,1603.000
1693.000,1641.000,1609.000
1685.000,1637.000,1605.000
1651.000,1640.000,1590.000
1647.000,1630.000,1599.000
1648.000,1629.000,1572.000
1630.000,1612.000,1590.000
1650.000,1607.000,1583.000
1642.000,1626.000,1588.000
1626.000,1623.000,1601.000
1620.000,1619.000,1572.000
1628.000,1614.000,1570.000
1629.000,1597.000,1575.000
1625.000,1605.000,1562.000
1624.000,1611.000,1565.000
1605.000,1587.000,1551.000
1607.000,1612.000,1541.000
1620.000,1584.000,1549.000
1612.000,1579.000,1548.000
1592.000,1573.000,1554.000
1592.000,1569.000,1545.000
1577.000,1566.000,1542.000
1583.000,1566.000,1525.000
1579.000,1577.000,1518.000
1577.000,1566.000,1527.000
1578.000,1567.000,1532.000
1573.000,1564.000,1509.000
1563.000,1549.000,1523.000
1564.000,1555.000,1532.000
1582.000,1557.000,1539.000
1574.000,1548.000,1518.000
1580.000,1548.000,1527.000
1591.000,1557.000,1533.000
1585.000,1560.000,1536.000
1569.000,1550.000,1550.000
1568.000,1565.000,1528.000
1570.000,1554.000,1508.000
1587.000,1553.000,1526.000
1574.000,1544.000,1523.000
1561.000,1570.000,1534.000
1560.000,1564.000,1512.000
1555.000,1544.000,1514.000
1552.000,1538.000,1516.000
1562.000,1546.000,1509.000
1561.000,1535.000,1518.000
1571.000,1542.000,1501.000
1565.000,1539.000,1515.000
1535.000,1515.000,1500.000
1549.000,1533.000,1508.000
1546.000,1546.000,1520.000
1539.000,1530.000,1485.000
1547.000,1522.000,1515.000
1531.000,1514.000,1491.000
1531.000,1497.000,1499.000
1520.000,1511.000,1482.000
1533.000,1523.000,1478.000
1528.000,1519.000,1476.000
1518.000,1521.000,1474.000
1513.000,1509.000,1470.000
1531.000,1514.000,1475.000
1517.000,1497.000,1461.000
1523.000,1483.000,1463.000
1488.000,1489.000,1464.000
