Focus Mode,Read Mode,Exposure Time (sec),Number of Frames,Start Y,End Y,Date,Time,Position (microns)
Single Acquisition,Spectrum,20.000000,3,105,125,12/11/2020,4:22:20 PM,0.000000,0.000000,40.010000,

1255.000,1260.000,1257.000
1260.000,1257.000,1248.000
1253.000,1261.000,1253.000
1260.000,1249.000,1262.000
1264.000,1258.000,1253.000
1261.000,1258.000,1266.000
1265.000,1259.000,1269.000
1267.000,1253.000,1267.000
1261.000,1259.000,1274.000
1265.000,1258.000,1268.000
1260.000,1258.000,1262.000
1263.000,1263.000,1261.000
1265.000,1255.000,1262.000
1270.000,1263.000,1271.000
1268.000,1280.000,1265.000
1268.000,1258.000,1261.000
1279.000,1268.000,1270.000
1272.000,1263.000,1269.000
1271.000,1267.000,1272.000
1276.000,1274.000,1271.000
1271.000,1273.000,1274.000
1279.000,1277.000,1267.000
1283.000,1281.000,1278.000
1278.000,1276.000,1284.000
1284.000,1286.000,1279.000
1289.000,1286.000,1287.000
1287.000,1285.000,1287.000
1286.000,1284.000,1294.000
1288.000,1288.000,1297.000
1288.000,1284.000,1288.000
1298.000,1288.000,1291.000
1294.000,1295.000,1295.000
1303.000,1298.000,1298.000
1313.000,1299.000,1305.000
1299.000,1299.000,1298.000
1316.000,1308.000,1315.000
1301.000,1300.000,1317.000
1320.000,1311.000,1312.000
1323.000,1315.000,1313.000
1318.000,1317.000,1314.000
1321.000,1326.000,1310.000
1331.000,1316.000,1319.000
1338.000,1325.000,1334.000
1339.000,1332.000,1333.000
1343.000,1333.000,1325.000
1344.000,1335.000,1338.000
1337.000,1346.000,1344.000
1343.000,1348.000,1347.000
1354.000,1345.000,1340.000
1355.000,1343.000,1360.000
1372.000,1359.000,1367.000
1385.000,1372.000,1358.000
1376.000,1373.000,1370.000
1389.000,1385.000,1380.000
1380.000,1389.000,1380.000
1383.000,1380.000,1391.000
1408.000,1391.000,1395.000
1401.000,1402.000,1399.000
1405.000,1398.000,1404.000
1425.000,1412.000,1401.000
1396.000,1431.000,1412.000
1427.000,1426.000,1428.000
1429.000,1432.000,1426.000
1441.000,1423.000,1421.000
1458.000,1449.000,1435.000
1440.000,1440.000,1446.000
1457.000,1454.000,1453.000
1462.000,1479.000,1488.000
1479.000,1470.000,1484.000
1487.000,1491.000,1486.000
1524.000,1483.000,1495.000
1520.000,1511.000,1513.000
1525.000,1534.000,1516.000
1542.000,1551.000,1539.000
1568.000,1565.000,1558.000
1575.000,1579.000,1572.000
1582.000,1601.000,1600.000
1619.000,1595.000,1593.000
1595.000,1625.000,1609.000
1624.000,1647.000,1632.000
1673.000,1668.000,1634.000
1682.000,1652.000,1674.000
1687.000,1666.000,1660.000
1686.000,1696.000,1682.000
1707.000,1688.000,1684.000
1722.000,1703.000,1716.000
1761.000,1737.000,1755.000
1754.000,1748.000,1721.000
1813.000,1788.000,1759.000
1823.000,1775.000,1812.000
1844.000,1821.000,1790.000
1852.000,1825.000,1853.000
1905.000,1864.000,1879.000
1908.000,1903.000,1913.000
1958.000,1931.000,1920.000
2019.000,1999.000,1972.000
2061.000,2058.000,2050.000
2147.000,2150.000,2121.000
2232.000,2217.000,2195.000
2356.000,2307.000,2344.000
2456.000,2436.000,2433.000
2594.000,2562.000,2547.000
2732.000,2719.000,2694.000
2833.000,2857.000,2796.000
3022.000,2976.000,2995.000
3102.000,3016.000,2987.000
3170.000,3111.000,3105.000
3162.000,3112.000,3069.000
3206.000,3159.000,3155.000
3218.000,3195.000,3127.000
3195.000,3128.000,3136.000
3159.000,3134.000,3118.000
3155.000,3092.000,3114.000
3099.000,3049.000,3052.000
3123.000,3093.000,3018.000
3130.000,3099.000,3143.000
3207.000,3167.000,3196.000
3339.000,3283.000,3265.000
3536.000,3486.000,3440.000
3792.000,3756.000,3732.000
4321.000,4207.000,4223.000
5262.000,5060.000,5104.000
7415.000,6967.000,7118.000
13767.000,12100.000,12428.000
62382.000,63837.000,35950.000
61526.000,61725.000,61600.000
62056.000,62118.000,62132.000
61995.000,62025.000,62050.000
62021.000,62042.000,62021.000
62011.000,62026.000,62015.000
61984.000,61988.000,62006.000
61989.000,61994.000,61992.000
61989.000,61997.000,61988.000
61978.000,61983.000,61988.000
61978.000,61978.000,61981.000
61974.000,61979.000,61984.000
61976.000,61987.000,61983.000
61976.000,61975.000,61977.000
61972.000,61981.000,61987.000
61974.000,61979.000,61985.000
61976.000,61973.000,61981.000
61973.000,61984.000,61980.000
61974.000,61978.000,61978.000
61973.000,61979.000,61974.000
61973.000,61972.000,61973.000
61971.000,61971.000,61976.000
61976.000,61969.000,61975.000
61971.000,61976.000,61972.000
61970.000,61975.000,61977.000
61969.000,61972.000,61974.000
61967.000,61973.000,61975.000
61971.000,61977.000,61973.000
61971.000,61972.000,61973.000
61967.000,61974.000,61974.000
61972.000,61971.000,61972.000
61967.000,61970.000,61978.000
61968.000,61973.000,61975.000
61968.000,61974.000,61972.000
61973.000,61968.000,61972.000
61967.000,61972.000,61976.000
61973.000,61974.000,61976.000
61969.000,61970.000,61974.000
61974.000,61970.000,61976.000
61969.000,61973.000,61975.000
61974.000,61972.000,61975.000
61970.000,61971.000,61974.000
61970.000,61969.000,61973.000
61965.000,61977.000,61975.000
61969.000,61973.000,61977.000
61969.000,61977.000,61974.000
61970.000,61972.000,61976.000
61969.000,61972.000,61978.000
61976.000,61973.000,61975.000
61974.000,61977.000,61981.000
61976.000,61976.000,61990.000
61978.000,61979.000,62019.000
61992.000,62010.000,65535.000
62019.000,62049.000,1655.000
59063.000,1859.000,1554.000
1647.000,1565.000,1558.000
1577.000,1555.000,1507.000
1518.000,1530.000,1501.000
1534.000,1511.000,1500.000
1499.000,1509.000,1484.000
1502.000,1501.000,1495.000
1483.000,1477.000,1477.000
1477.000,1489.000,1478.000
1478.000,1459.000,1447.000
1466.000,1457.000,1464.000
1459.000,1458.000,1453.000
1437.000,1442.000,1455.000
1445.000,1435.000,1424.000
1443.000,1437.000,1425.000
1432.000,1420.000,1420.000
1448.000,1431.000,1411.000
1422.000,1423.000,1421.000
1431.000,1418.000,1406.000
1407.000,1413.000,1409.000
1406.000,1406.000,1407.000
1396.000,1398.000,1383.000
1410.000,1394.000,1396.000
1405.000,1396.000,1393.000
1387.000,1415.000,1397.000
1405.000,1387.000,1392.000
1400.000,1390.000,1394.000
1383.000,1384.000,1385.000
1388.000,1392.000,1393.000
1384.000,1375.000,1373.000
1368.000,1385.000,1382.000
1372.000,1372.000,1371.000
1372.000,1364.000,1360.000
1363.000,1359.000,1358.000
1374.000,1367.000,1375.000
1365.000,1357.000,1368.000
1363.000,1356.000,1349.000
1368.000,1367.000,1362.000
1362.000,1352.000,1360.000
1358.000,1348.000,1351.000
1361.000,1345.000,1342.000
1344.000,1345.000,1337.000
1347.000,1346.000,1346.000
1341.000,1331.000,1337.000
1339.000,1339.000,1330.000
1342.000,1338.000,1345.000
1339.000,1327.000,1336.000
1338.000,1341.000,1344.000
1336.000,1337.000,1325.000
1344.000,1324.000,1343.000
1332.000,1337.000,1330.000
1331.000,1323.000,1327.000
1328.000,1331.000,1327.000
1330.000,1332.000,1327.000
1325.000,1329.000,1328.000
1334.000,1320.000,1314.000
1328.000,1323.000,1310.000
1321.000,1335.000,1324.000
1315.000,1329.000,1317.000
1321.000,1325.000,1320.000
1333.000,1319.000,1318.000
1310.000,1321.000,1321.000
1311.000,1325.000,1316.000
1319.000,1314.000,1310.000
1327.000,1321.000,1309.000
1326.000,1314.000,1332.000
1311.000,1301.000,1299.000
1307.000,1323.000,1310.000
1316.000,1312.000,1305.000
1317.000,1308.000,1309.000
1307.000,1306.000,1302.000
1306.000,1312.000,1309.000
1317.000,1307.000,1297.000
1312.000,1310.000,1310.000
1303.000,1301.000,1304.000
1309.000,1306.000,1301.000
1307.000,1312.000,1304.000
1294.000,1307.000,1293.000
1302.000,1311.000,1305.000
1295.000,1303.000,1307.000
1315.000,1296.000,1301.000
1294.000,1307.000,1301.000
1299.000,1309.000,1293.000
1307.000,1302.000,1299.000
1306.000,1290.000,1297.000
1291.000,1303.000,1290.000
1297.000,1298.000,1302.000
1299.000,1291.000,1299.000
1304.000,1286.000,1292.000
1294.000,1305.000,1287.000
1303.000,1301.000,1299.000
1308.000,1296.000,1295.000
1293.000,1300.000,1308.000
1301.000,1304.000,1294.000
1305.000,1299.000,1296.000
1291.000,1296.000,1308.000
1302.000,1292.000,1293.000
1296.000,1294.000,1296.000
1312.000,1299.000,1309.000
1300.000,1301.000,1291.000
1312.000,1296.000,1293.000
1310.000,1302.000,1300.000
1303.000,1299.000,1308.000
1310.000,1303.000,1298.000
1309.000,1308.000,1306.000
1317.000,1311.000,1314.000
1313.000,1319.000,1316.000
1339.000,1324.000,1320.000
1327.000,1325.000,1331.000
1340.000,1327.000,1316.000
1352.000,1344.000,1332.000
1348.000,1352.000,1352.000
1368.000,1351.000,1351.000
1405.000,1383.000,1363.000
1390.000,1382.000,1369.000
1418.000,1391.000,1387.000
1429.000,1406.000,1409.000
1462.000,1434.000,1424.000
1494.000,1453.000,1452.000
1512.000,1488.000,1478.000
1577.000,1512.000,1486.000
1581.000,1561.000,1532.000
1668.000,1618.000,1585.000
1745.000,1664.000,1607.000
1803.000,1730.000,1675.000
1863.000,1794.000,1768.000
1989.000,1918.000,1847.000
2145.000,2016.000,1934.000
2290.000,2153.000,2033.000
2479.000,2275.000,2194.000
2654.000,2445.000,2374.000
2911.000,2697.000,2551.000
3171.000,2924.000,2776.000
3532.000,3265.000,3029.000
3976.000,3540.000,3400.000
4365.000,3969.000,3707.000
4949.000,4423.000,4149.000
5530.000,4879.000,4597.000
6055.000,5489.000,5034.000
6730.000,5961.000,5510.000
7448.000,6626.000,6188.000
8156.000,7160.000,6674.000
8998.000,7941.000,7250.000
9634.000,8494.000,7811.000
10254.000,9132.000,8290.000
11014.000,9597.000,8785.000
11664.000,10248.000,9276.000
11956.000,10547.000,9816.000
12532.000,11041.000,9957.000
12942.000,11312.000,10275.000
13113.000,11480.000,10330.000
13341.000,11604.000,10586.000
13454.000,11747.000,10607.000
13564.000,11825.000,10784.000
13616.000,11940.000,10772.000
13765.000,12032.000,10831.000
13905.000,12134.000,10892.000
13860.000,12087.000,11005.000
13939.000,12035.000,11053.000
13746.000,11969.000,10900.000
13876.000,12136.000,10984.000
13786.000,11967.000,10862.000
13797.000,11987.000,10881.000
13824.000,12156.000,10937.000
13764.000,12163.000,10984.000
13932.000,12154.000,10991.000
14031.000,12038.000,10989.000
13903.000,12120.000,11058.000
13971.000,12082.000,11005.000
14056.000,12265.000,11029.000
13992.000,12230.000,11098.000
14058.000,12183.000,11076.000
13988.000,12274.000,11089.000
14041.000,12112.000,11003.000
13925.000,12102.000,10996.000
14055.000,12205.000,10990.000
14100.000,12240.000,11120.000
14083.000,12126.000,11102.000
14059.000,12224.000,11019.000
14014.000,12198.000,11059.000
14051.000,12246.000,11063.000
14016.000,12105.000,11060.000
14082.000,12263.000,11071.000
14163.000,12127.000,11045.000
14263.000,12386.000,11152.000
14130.000,12329.000,11055.000
14247.000,12404.000,11214.000
14074.000,12401.000,11017.000
14134.000,12194.000,11094.000
14109.000,12322.000,11196.000
14192.000,12166.000,11132.000
14203.000,12228.000,11031.000
14248.000,12208.000,11253.000
14240.000,12348.000,11248.000
14183.000,12285.000,11215.000
14269.000,12382.000,11094.000
14143.000,12283.000,11167.000
14211.000,12387.000,11180.000
14300.000,12416.000,11238.000
14338.000,12411.000,11342.000
14512.000,12519.000,11313.000
14513.000,12631.000,11495.000
14619.000,12661.000,11368.000
14511.000,12802.000,11462.000
14600.000,12592.000,11535.000
14569.000,12682.000,11540.000
14563.000,12769.000,11573.000
14650.000,12615.000,11584.000
14669.000,12674.000,11517.000
14738.000,12619.000,11419.000
14565.000,12649.000,11633.000
14635.000,12795.000,11513.000
14812.000,12819.000,11625.000
14847.000,12783.000,11653.000
14849.000,12943.000,11781.000
14912.000,12813.000,11671.000
14885.000,13010.000,11723.000
15057.000,13008.000,11670.000
15013.000,13017.000,11755.000
14880.000,12855.000,11789.000
15022.000,12942.000,11768.000
15127.000,12882.000,11806.000
14922.000,12995.000,11760.000
15033.000,13040.000,11757.000
14893.000,12903.000,11699.000
14870.000,13047.000,11730.000
14810.000,12897.000,11689.000
14922.000,12915.000,11730.000
14912.000,12935.000,11620.000
14844.000,12890.000,11855.000
15019.000,12939.000,11683.000
14840.000,12931.000,11690.000
14761.000,12910.000,11723.000
14976.000,12982.000,11822.000
14930.000,13068.000,11704.000
14907.000,12906.000,11695.000
14778.000,12882.000,11708.000
14932.000,12907.000,11879.000
14994.000,12995.000,11726.000
15069.000,12959.000,11833.000
14951.000,12901.000,11763.000
14971.000,12923.000,11781.000
15089.000,12914.000,11694.000
14992.000,12975.000,11783.000
14938.000,12979.000,11623.000
14980.000,12997.000,11713.000
15145.000,13071.000,11940.000
15007.000,12999.000,11746.000
15247.000,13084.000,11887.000
15183.000,13033.000,11819.000
15145.000,13201.000,11925.000
15269.000,13137.000,11923.000
15229.000,13223.000,12011.000
15343.000,13301.000,11980.000
15334.000,13212.000,12038.000
15249.000,13218.000,12015.000
15446.000,13320.000,12147.000
15429.000,13351.000,12028.000
15342.000,13328.000,12089.000
15376.000,13229.000,12192.000
15402.000,13372.000,12126.000
15402.000,13460.000,12126.000
15447.000,13281.000,12085.000
15330.000,13280.000,12008.000
15410.000,13324.000,12025.000
15610.000,13327.000,12199.000
15375.000,13399.000,12141.000
15509.000,13458.000,12061.000
15476.000,13468.000,12184.000
15591.000,13483.000,12304.000
15572.000,13527.000,12315.000
15617.000,13419.000,12291.000
15800.000,13486.000,12117.000
15551.000,13505.000,12194.000
15516.000,13416.000,12092.000
15539.000,13414.000,12129.000
15408.000,13424.000,12032.000
15376.000,13527.000,12192.000
15521.000,13400.000,12194.000
15539.000,13409.000,12169.000
15705.000,13594.000,12196.000
15488.000,13526.000,12241.000
15424.000,13372.000,12194.000
15459.000,13474.000,12243.000
15700.000,13531.000,12282.000
15409.000,13392.000,12164.000
15529.000,13448.000,12183.000
15596.000,13377.000,12094.000
15498.000,13411.000,12223.000
15576.000,13518.000,12357.000
15651.000,13563.000,12183.000
15687.000,13473.000,12373.000
15608.000,13327.000,12133.000
15565.000,13453.000,12282.000
15703.000,13527.000,12168.000
15667.000,13641.000,12271.000
15682.000,13632.000,12191.000
15790.000,13677.000,12345.000
15788.000,13473.000,12339.000
15848.000,13687.000,12291.000
15891.000,13698.000,12415.000
15728.000,13805.000,12346.000
15893.000,13575.000,12379.000
15722.000,13678.000,12395.000
15897.000,13622.000,12329.000
15851.000,13579.000,12480.000
15714.000,13708.000,12326.000
15745.000,13734.000,12340.000
15824.000,13649.000,12381.000
15959.000,13671.000,12482.000
16104.000,13725.000,12530.000
15900.000,13763.000,12511.000
15989.000,13883.000,12365.000
15802.000,13690.000,12361.000
15899.000,13751.000,12427.000
15863.000,13881.000,12505.000
15976.000,13815.000,12623.000
15928.000,13823.000,12542.000
16058.000,13910.000,12515.000
16075.000,13879.000,12525.000
16145.000,13824.000,12489.000
16208.000,13976.000,12535.000
16022.000,13966.000,12716.000
16088.000,13979.000,12514.000
16128.000,13901.000,12639.000
16097.000,14027.000,12763.000
16314.000,13937.000,12587.000
16362.000,14163.000,12668.000
16261.000,14006.000,12698.000
16181.000,14043.000,12767.000
16270.000,14135.000,12671.000
16171.000,14083.000,12752.000
16137.000,14004.000,12737.000
16256.000,13912.000,12662.000
16220.000,14077.000,12702.000
16156.000,14001.000,12718.000
16234.000,14073.000,12659.000
16151.000,14014.000,12632.000
16123.000,13887.000,12631.000
16119.000,13981.000,12657.000
15971.000,13950.000,12613.000
16030.000,13914.000,12560.000
15911.000,13928.000,12589.000
16125.000,13834.000,12617.000
16068.000,13828.000,12604.000
15937.000,13810.000,12493.000
15944.000,13743.000,12504.000
15850.000,13852.000,12485.000
15984.000,13996.000,12569.000
16027.000,13960.000,12706.000
16198.000,13893.000,12668.000
16168.000,14092.000,12656.000
16148.000,14015.000,12688.000
16130.000,13894.000,12608.000
16183.000,13987.000,12618.000
16133.000,13892.000,12612.000
16132.000,13982.000,12564.000
16160.000,13885.000,12687.000
16086.000,14004.000,12725.000
16070.000,13983.000,12777.000
16125.000,13996.000,12675.000
16230.000,14029.000,12666.000
16055.000,13950.000,12672.000
16170.000,14014.000,12700.000
16294.000,14100.000,12717.000
16217.000,13942.000,12780.000
16217.000,14007.000,12685.000
16383.000,14136.000,12727.000
16253.000,14036.000,12741.000
16266.000,13978.000,12709.000
16163.000,13932.000,12618.000
16151.000,14119.000,12788.000
16217.000,14111.000,12729.000
16351.000,13982.000,12745.000
16410.000,14203.000,12788.000
16227.000,14123.000,12753.000
16406.000,14004.000,12739.000
16318.000,14127.000,12816.000
16349.000,14140.000,12767.000
16355.000,14182.000,12803.000
16334.000,14141.000,12764.000
16244.000,14219.000,12950.000
16515.000,14229.000,12861.000
16506.000,14297.000,12876.000
16491.000,14388.000,12946.000
16632.000,14383.000,12961.000
16487.000,14352.000,12904.000
16522.000,14329.000,12951.000
16562.000,14344.000,12861.000
16643.000,14295.000,12928.000
16593.000,14409.000,12929.000
16558.000,14409.000,13078.000
16693.000,14314.000,13046.000
16637.000,14392.000,12930.000
16724.000,14375.000,12901.000
16868.000,14354.000,12999.000
16662.000,14449.000,13061.000
16625.000,14363.000,12984.000
16595.000,14430.000,13008.000
16520.000,14386.000,12948.000
16512.000,14267.000,12962.000
16533.000,14274.000,12852.000
16522.000,14158.000,12826.000
16299.000,14392.000,12765.000
16570.000,14223.000,12808.000
16549.000,14260.000,12992.000
16600.000,14456.000,13003.000
16589.000,14392.000,12909.000
16677.000,14436.000,12969.000
16560.000,14371.000,13010.000
16598.000,14299.000,12924.000
16742.000,14355.000,12910.000
16761.000,14559.000,13120.000
16765.000,14361.000,12975.000
16570.000,14389.000,12898.000
16665.000,14248.000,12934.000
16613.000,14263.000,13079.000
16642.000,14402.000,13004.000
16561.000,14448.000,12850.000
16483.000,14209.000,12918.000
16304.000,14168.000,12767.000
16408.000,14081.000,12673.000
16392.000,14290.000,12828.000
16450.000,14056.000,12795.000
16304.000,14145.000,12736.000
16351.000,14140.000,12834.000
16485.000,14006.000,12736.000
16386.000,14078.000,12771.000
16296.000,14180.000,12841.000
16422.000,14165.000,12782.000
16376.000,14289.000,12792.000
16473.000,14175.000,12801.000
16429.000,14226.000,12912.000
16475.000,14374.000,12961.000
16480.000,14188.000,12838.000
16493.000,14171.000,12803.000
16398.000,14125.000,12801.000
16374.000,14164.000,12668.000
16386.000,14134.000,12798.000
16359.000,14163.000,12746.000
16421.000,14108.000,12648.000
16349.000,14107.000,12746.000
16347.000,14323.000,12879.000
16472.000,14327.000,12886.000
16475.000,14213.000,12887.000
16529.000,14298.000,12905.000
16445.000,14191.000,12895.000
16502.000,14195.000,12804.000
16612.000,14326.000,12982.000
16676.000,14472.000,12999.000
16444.000,14136.000,12822.000
16504.000,14116.000,12856.000
16311.000,14061.000,12899.000
16527.000,14142.000,12890.000
16539.000,14188.000,12788.000
16298.000,14250.000,12967.000
16391.000,14097.000,12884.000
16519.000,14352.000,12995.000
16480.000,14291.000,12942.000
16522.000,14275.000,12859.000
16496.000,14441.000,12828.000
16559.000,14310.000,12853.000
16704.000,14391.000,13065.000
16678.000,14315.000,12957.000
16647.000,14516.000,12970.000
16613.000,14323.000,13006.000
16603.000,14421.000,12984.000
16577.000,14477.000,12892.000
16727.000,14377.000,12885.000
16674.000,14330.000,12974.000
16786.000,14416.000,12890.000
16609.000,14422.000,12946.000
16718.000,14534.000,12940.000
16778.000,14484.000,13098.000
16753.000,14438.000,12989.000
16608.000,14435.000,12894.000
16697.000,14368.000,12935.000
16523.000,14430.000,13047.000
16642.000,14405.000,12986.000
16649.000,14310.000,13094.000
16652.000,14339.000,12991.000
16711.000,14568.000,13098.000
16722.000,14469.000,13085.000
16597.000,14432.000,13104.000
16576.000,14445.000,12945.000
16651.000,14443.000,13020.000
16654.000,14328.000,13019.000
16530.000,14294.000,12944.000
16594.000,14383.000,12965.000
16639.000,14464.000,12860.000
16736.000,14345.000,12902.000
16623.000,14380.000,13006.000
16617.000,14388.000,13040.000
16583.000,14397.000,12984.000
16532.000,14448.000,12986.000
16590.000,14347.000,12937.000
16584.000,14235.000,12876.000
16799.000,14425.000,12942.000
16701.000,14362.000,12915.000
16610.000,14371.000,13077.000
16806.000,14476.000,13000.000
16705.000,14534.000,13146.000
16716.000,14505.000,13020.000
16679.000,14251.000,13009.000
16694.000,14411.000,12931.000
16656.000,14401.000,13088.000
16495.000,14318.000,13111.000
16552.000,14452.000,12933.000
16623.000,14541.000,13012.000
16666.000,14524.000,13157.000
16594.000,14486.000,13060.000
16744.000,14477.000,13119.000
16605.000,14574.000,13103.000
16656.000,14415.000,12939.000
16654.000,14411.000,13028.000
16488.000,14266.000,13007.000
16568.000,14410.000,13092.000
16582.000,14388.000,12958.000
16513.000,14295.000,12826.000
16707.000,14376.000,12773.000
16655.000,14349.000,13105.000
16583.000,14419.000,12858.000
16531.000,14466.000,13042.000
16573.000,14375.000,13048.000
16655.000,14367.000,12980.000
16583.000,14472.000,13068.000
16776.000,14507.000,12972.000
16592.000,14404.000,12970.000
16560.000,14310.000,13008.000
16674.000,14446.000,12952.000
16739.000,14509.000,12968.000
16660.000,14352.000,13010.000
16508.000,14394.000,12975.000
16620.000,14405.000,12965.000
16677.000,14467.000,13019.000
16622.000,14329.000,13025.000
16545.000,14355.000,12921.000
16659.000,14368.000,12999.000
16546.000,14355.000,13096.000
16639.000,14392.000,12996.000
16682.000,14429.000,13079.000
16705.000,14463.000,13173.000
16557.000,14329.000,12957.000
16551.000,14267.000,12950.000
16515.000,14357.000,12899.000
16628.000,14341.000,12907.000
16536.000,14373.000,12887.000
16569.000,14266.000,12926.000
16532.000,14166.000,12818.000
16490.000,14319.000,12768.000
16452.000,14301.000,12857.000
16566.000,14292.000,12784.000
16525.000,14405.000,12972.000
16621.000,14450.000,13077.000
16699.000,14469.000,13045.000
16562.000,14441.000,12943.000
16621.000,14192.000,12855.000
16425.000,14231.000,12905.000
16339.000,14272.000,12930.000
16397.000,14210.000,12893.000
16542.000,14279.000,12799.000
16327.000,14120.000,12808.000
16324.000,14108.000,12688.000
16512.000,14211.000,12802.000
16408.000,14266.000,12698.000
16328.000,14191.000,12803.000
16414.000,14262.000,12637.000
16505.000,14243.000,12891.000
16485.000,14149.000,12868.000
16540.000,14261.000,12910.000
16317.000,14140.000,12869.000
16337.000,14267.000,12805.000
16583.000,14231.000,12867.000
16469.000,14208.000,12896.000
16292.000,14298.000,12803.000
16517.000,14280.000,12779.000
16367.000,14252.000,12648.000
16284.000,14196.000,12844.000
16555.000,14202.000,12762.000
16465.000,14319.000,12995.000
16470.000,14215.000,13045.000
16500.000,14146.000,12769.000
16380.000,14109.000,12836.000
16460.000,14173.000,12781.000
16398.000,14297.000,12841.000
16497.000,14267.000,12906.000
16446.000,14229.000,12835.000
16360.000,14092.000,12811.000
16445.000,14083.000,12805.000
16421.000,14222.000,12851.000
16485.000,14285.000,12879.000
16480.000,14215.000,12813.000
16557.000,14180.000,12879.000
16557.000,14355.000,12979.000
16541.000,14361.000,12938.000
16485.000,14282.000,12958.000
16547.000,14385.000,12744.000
16600.000,14367.000,13015.000
16593.000,14463.000,13080.000
16537.000,14443.000,12984.000
16680.000,14406.000,12975.000
16626.000,14353.000,12991.000
16429.000,14353.000,12911.000
16686.000,14337.000,12955.000
16650.000,14311.000,13000.000
16658.000,14424.000,13134.000
16880.000,14449.000,13109.000
16858.000,14501.000,13171.000
16743.000,14577.000,13210.000
16700.000,14532.000,13118.000
16798.000,14440.000,13260.000
16878.000,14656.000,13274.000
16901.000,14475.000,13248.000
16745.000,14520.000,13121.000
16551.000,14463.000,13046.000
16636.000,14508.000,12938.000
16821.000,14590.000,13043.000
16721.000,14614.000,13227.000
16812.000,14616.000,13152.000
16769.000,14517.000,13051.000
16723.000,14592.000,13066.000
16811.000,14572.000,13110.000
16913.000,14479.000,13096.000
16640.000,14332.000,13003.000
16568.000,14354.000,13035.000
16517.000,14442.000,12980.000
16520.000,14273.000,13135.000
16533.000,14480.000,13010.000
16768.000,14486.000,12963.000
16580.000,14465.000,12998.000
16477.000,14446.000,12967.000
16696.000,14485.000,13116.000
16689.000,14361.000,12899.000
16571.000,14429.000,12950.000
16530.000,14351.000,12894.000
16538.000,14317.000,12997.000
16488.000,14308.000,12961.000
16571.000,14355.000,12791.000
16481.000,14345.000,12966.000
16581.000,14348.000,12958.000
16536.000,14360.000,12964.000
16381.000,14230.000,12794.000
16335.000,14201.000,12818.000
16456.000,14187.000,12704.000
16421.000,14359.000,12828.000
16549.000,14204.000,12811.000
16398.000,14267.000,12850.000
16325.000,14278.000,12857.000
16355.000,14352.000,12853.000
16539.000,14349.000,12856.000
16393.000,14251.000,12885.000
16513.000,14270.000,12995.000
16231.000,14201.000,12806.000
16287.000,14168.000,12806.000
16188.000,14124.000,12765.000
16296.000,14289.000,12757.000
16388.000,14110.000,12903.000
16288.000,14196.000,12869.000
16293.000,14116.000,12710.000
16245.000,14149.000,12734.000
16332.000,14160.000,12789.000
16413.000,14144.000,12819.000
16332.000,14171.000,12729.000
16198.000,14226.000,12762.000
16194.000,14265.000,12737.000
16348.000,14113.000,12817.000
16437.000,14324.000,12840.000
16341.000,14200.000,12852.000
16370.000,14120.000,12813.000
16289.000,14303.000,12740.000
16229.000,14048.000,12807.000
16256.000,14183.000,12676.000
16231.000,14098.000,12760.000
16302.000,14131.000,12754.000
16128.000,14080.000,12811.000
16519.000,14297.000,12812.000
16349.000,14297.000,12881.000
16438.000,14244.000,13127.000
16328.000,14333.000,12891.000
16513.000,14474.000,13001.000
16450.000,14299.000,12999.000
16464.000,14357.000,13020.000
16524.000,14355.000,12958.000
16380.000,14292.000,12857.000
16571.000,14184.000,12944.000
16450.000,14216.000,12886.000
16417.000,14291.000,12927.000
16197.000,14246.000,12833.000
16302.000,14204.000,12837.000
16467.000,14323.000,12907.000
16654.000,14285.000,12956.000
16494.000,14355.000,12861.000
16453.000,14317.000,12973.000
16442.000,14328.000,12852.000
16621.000,14422.000,12944.000
16520.000,14350.000,12915.000
16522.000,14391.000,12926.000
16644.000,14368.000,12963.000
16501.000,14273.000,12906.000
16632.000,14380.000,13105.000
16504.000,14320.000,13028.000
16449.000,14342.000,12921.000
16262.000,14380.000,12735.000
16322.000,14201.000,12844.000
16263.000,14229.000,12812.000
16401.000,14273.000,12911.000
16565.000,14191.000,12841.000
16287.000,14143.000,12681.000
16248.000,14137.000,12745.000
16351.000,14224.000,12828.000
16271.000,14099.000,12759.000
16311.000,14083.000,12674.000
16345.000,14248.000,12720.000
16310.000,14195.000,12812.000
16346.000,14301.000,12860.000
16254.000,14190.000,12712.000
16199.000,13967.000,12715.000
16197.000,14105.000,12667.000
16076.000,13989.000,12578.000
16106.000,14100.000,12528.000
15986.000,13966.000,12540.000
15827.000,13912.000,12533.000
15920.000,13755.000,12479.000
15956.000,13964.000,12423.000
16059.000,13817.000,12399.000
15865.000,13931.000,12507.000
16071.000,13827.000,12582.000
15967.000,13932.000,12471.000
16016.000,13892.000,12568.000
16138.000,13895.000,12411.000
16159.000,13897.000,12530.000
15947.000,13936.000,12431.000
15965.000,13976.000,12470.000
15954.000,13867.000,12521.000
15841.000,13923.000,12521.000
15997.000,13698.000,12507.000
15922.000,13815.000,12386.000
15867.000,13791.000,12467.000
15843.000,13824.000,12442.000
15932.000,13828.000,12321.000
15700.000,13737.000,12354.000
15698.000,13789.000,12377.000
15730.000,13689.000,12396.000
15666.000,13716.000,12261.000
15704.000,13616.000,12258.000
15800.000,13806.000,12391.000
15652.000,13670.000,12398.000
15665.000,13692.000,12370.000
15723.000,13549.000,12407.000
15709.000,13685.000,12384.000
15694.000,13605.000,12323.000
15745.000,13719.000,12315.000
15655.000,13640.000,12388.000
15769.000,13728.000,12324.000
15755.000,13784.000,12346.000
15845.000,13876.000,12364.000
15871.000,13773.000,12417.000
15805.000,13870.000,12572.000
15915.000,13933.000,12490.000
15809.000,13753.000,12494.000
15613.000,13704.000,12423.000
15671.000,13732.000,12299.000
15775.000,13695.000,12376.000
15738.000,13601.000,12355.000
15533.000,13569.000,12151.000
15692.000,13616.000,12275.000
15660.000,13668.000,12186.000
15637.000,13706.000,12281.000
15602.000,13574.000,12302.000
15390.000,13593.000,12131.000
15329.000,13507.000,12157.000
15409.000,13569.000,12078.000
15544.000,13435.000,12142.000
15428.000,13513.000,12019.000
15513.000,13317.000,12129.000
15503.000,13418.000,12138.000
15599.000,13545.000,12074.000
15407.000,13475.000,12115.000
15498.000,13404.000,12093.000
15376.000,13444.000,12183.000
15505.000,13389.000,12094.000
15521.000,13472.000,12117.000
15557.000,13426.000,12071.000
15334.000,13396.000,12065.000
15454.000,13336.000,12183.000
15423.000,13387.000,11921.000
15321.000,13325.000,12054.000
15300.000,13214.000,11929.000
15370.000,13345.000,12030.000
15190.000,13214.000,12079.000
15189.000,13171.000,12029.000
15197.000,13313.000,11996.000
15097.000,13213.000,11937.000
14999.000,13170.000,11925.000
14948.000,13162.000,11787.000
15003.000,13156.000,11904.000
15142.000,13152.000,11771.000
14971.000,12853.000,11707.000
14872.000,13007.000,11708.000
14973.000,12979.000,11687.000
15010.000,12969.000,11662.000
14892.000,13126.000,11718.000
14955.000,13022.000,11776.000
15028.000,12983.000,11681.000
14744.000,12993.000,11577.000
14875.000,13053.000,11745.000
14909.000,12905.000,11677.000
14863.000,12935.000,11638.000
14713.000,12943.000,11761.000
14972.000,12992.000,11615.000
14889.000,13071.000,11766.000
14837.000,12956.000,11701.000
14781.000,12889.000,11669.000
14787.000,12751.000,11618.000
14779.000,12910.000,11659.000
14825.000,12924.000,11668.000
14714.000,12911.000,11624.000
14838.000,12972.000,11563.000
14819.000,12979.000,11667.000
14739.000,12949.000,11709.000
14775.000,12784.000,11634.000
14663.000,12815.000,11521.000
14723.000,12835.000,11527.000
14590.000,12909.000,11488.000
14733.000,12768.000,11502.000
14582.000,12657.000,11522.000
14439.000,12700.000,11433.000
14557.000,12622.000,11367.000
14663.000,12717.000,11367.000
14484.000,12667.000,11329.000
14495.000,12517.000,11317.000
14303.000,12544.000,11197.000
14287.000,12530.000,11358.000
14463.000,12603.000,11298.000
14289.000,12502.000,11295.000
14424.000,12513.000,11209.000
14329.000,12467.000,11257.000
14474.000,12608.000,11401.000
14398.000,12447.000,11201.000
14352.000,12525.000,11272.000
14261.000,12477.000,11240.000
14435.000,12431.000,11173.000
14332.000,12562.000,11286.000
14329.000,12553.000,11337.000
14197.000,12372.000,11201.000
14244.000,12336.000,11151.000
14128.000,12483.000,11165.000
14173.000,12424.000,11133.000
14041.000,12401.000,11210.000
13990.000,12138.000,11021.000
14134.000,12220.000,11098.000
14034.000,12189.000,11070.000
14143.000,12235.000,10919.000
14114.000,12243.000,11089.000
14012.000,12202.000,11042.000
13718.000,11940.000,10869.000
13833.000,11947.000,10821.000
13711.000,12032.000,10904.000
13711.000,11966.000,10861.000
13841.000,11862.000,10695.000
13704.000,12036.000,10755.000
13618.000,11784.000,10732.000
13630.000,11938.000,10783.000
13697.000,11924.000,10665.000
13600.000,11943.000,10700.000
13428.000,11739.000,10629.000
13555.000,11878.000,10674.000
13591.000,11840.000,10699.000
13713.000,11894.000,10778.000
13648.000,11899.000,10808.000
13579.000,11939.000,10697.000
13664.000,11788.000,10689.000
13685.000,11876.000,10684.000
13565.000,11794.000,10749.000
13489.000,11777.000,10574.000
13558.000,11698.000,10703.000
13565.000,11714.000,10523.000
13591.000,11911.000,10460.000
13478.000,11762.000,10622.000
13496.000,11700.000,10433.000
13350.000,11626.000,10561.000
13281.000,11604.000,10308.000
13182.000,11513.000,10342.000
13240.000,11565.000,10401.000
13226.000,11539.000,10359.000
13110.000,11517.000,10328.000
13015.000,11459.000,10273.000
13080.000,11244.000,10266.000
12873.000,11306.000,10215.000
12958.000,11339.000,10153.000
13057.000,11271.000,10076.000
12827.000,11168.000,10063.000
12958.000,11211.000,10062.000
12883.000,11178.000,10156.000
12877.000,11283.000,10054.000
12774.000,11292.000,10200.000
12838.000,11243.000,10111.000
12830.000,11256.000,10092.000
13015.000,11303.000,10180.000
13016.000,11393.000,10162.000
12947.000,11230.000,10191.000
12879.000,11330.000,10129.000
12851.000,11340.000,10065.000
12747.000,11318.000,10155.000
12897.000,11204.000,10098.000
12874.000,11294.000,10023.000
12781.000,11057.000,10041.000
12663.000,11146.000,9948.000
12712.000,11210.000,9957.000
12739.000,10992.000,9932.000
12602.000,10966.000,9898.000
12590.000,10976.000,9898.000
12531.000,10992.000,9804.000
12443.000,10824.000,9794.000
12298.000,10895.000,9776.000
12377.000,10837.000,9725.000
12414.000,10827.000,9714.000
12174.000,10769.000,9632.000
12170.000,10688.000,9599.000
12336.000,10766.000,9669.000
12241.000,10729.000,9662.000
12327.000,10821.000,9709.000
12372.000,10717.000,9727.000
12381.000,10950.000,9772.000
12393.000,10884.000,9711.000
12427.000,10720.000,9758.000
12384.000,10720.000,9709.000
12268.000,10883.000,9700.000
12360.000,10742.000,9638.000
12317.000,10818.000,9744.000
12177.000,10735.000,9648.000
12226.000,10651.000,9553.000
12217.000,10766.000,9584.000
12245.000,10637.000,9454.000
12088.000,10731.000,9601.000
12243.000,10624.000,9623.000
12188.000,10584.000,9609.000
12056.000,10556.000,9670.000
12240.000,10627.000,9579.000
12039.000,10610.000,9561.000
12249.000,10665.000,9625.000
12249.000,10719.000,9733.000
12274.000,10744.000,9670.000
12342.000,10877.000,9680.000
12274.000,10690.000,9631.000
12259.000,10715.000,9635.000
12143.000,10752.000,9701.000
12109.000,10575.000,9487.000
12131.000,10646.000,9456.000
12092.000,10661.000,9442.000
11982.000,10481.000,9545.000
11959.000,10488.000,9453.000
11942.000,10486.000,9442.000
11842.000,10443.000,9395.000
11799.000,10367.000,9336.000
11826.000,10298.000,9363.000
11730.000,10203.000,9240.000
11796.000,10327.000,9343.000
11841.000,10381.000,9353.000
11784.000,10409.000,9248.000
12033.000,10387.000,9376.000
11931.000,10431.000,9353.000
11933.000,10440.000,9300.000
11850.000,10423.000,9354.000
11934.000,10485.000,9463.000
11848.000,10364.000,9337.000
11821.000,10346.000,9318.000
11808.000,10298.000,9399.000
11748.000,10363.000,9236.000
11766.000,10200.000,9228.000
11564.000,10319.000,9163.000
11591.000,10203.000,9190.000
11815.000,10288.000,9222.000
11729.000,10348.000,9253.000
11718.000,10358.000,9333.000
11752.000,10317.000,9321.000
11920.000,10323.000,9318.000
11747.000,10359.000,9335.000
11833.000,10392.000,9283.000
11904.000,10400.000,9379.000
11816.000,10553.000,9367.000
11847.000,10274.000,9283.000
11706.000,10245.000,9306.000
11806.000,10330.000,9261.000
11563.000,10080.000,9036.000
11627.000,10149.000,9123.000
11593.000,10164.000,9175.000
11602.000,10196.000,9115.000
11519.000,10115.000,9272.000
11543.000,10152.000,9249.000
11736.000,10227.000,9236.000
11751.000,10295.000,9404.000
11768.000,10434.000,9291.000
11684.000,10271.000,9274.000
11594.000,10318.000,9171.000
11686.000,10264.000,9296.000
11753.000,10111.000,9200.000
11655.000,10218.000,9230.000
11598.000,10166.000,9174.000
11650.000,10080.000,9116.000
11621.000,10119.000,9145.000
11466.000,10131.000,9161.000
11447.000,10062.000,9116.000
11488.000,10172.000,9116.000
11609.000,10234.000,9250.000
11552.000,10209.000,9238.000
11537.000,10361.000,9215.000
11603.000,10277.000,9147.000
11674.000,10247.000,9216.000
11730.000,10263.000,9308.000
11763.000,10419.000,9368.000
11937.000,10322.000,9358.000
11902.000,10326.000,9273.000
11878.000,10387.000,9252.000
11707.000,10348.000,9331.000
11554.000,10284.000,9136.000
11728.000,10206.000,9181.000
11561.000,10235.000,9108.000
11585.000,10219.000,9164.000
11473.000,10165.000,9065.000
11412.000,10074.000,8992.000
11437.000,10043.000,9162.000
11356.000,10043.000,9123.000
11457.000,10131.000,9147.000
11494.000,10155.000,9190.000
11489.000,10210.000,9127.000
11524.000,10168.000,9191.000
11556.000,10265.000,9134.000
11634.000,10241.000,9297.000
11619.000,10279.000,9236.000
11603.000,10214.000,9196.000
11621.000,10153.000,9302.000
11578.000,10187.000,9140.000
11514.000,10144.000,9143.000
11488.000,10097.000,9236.000
11422.000,10101.000,9086.000
11522.000,10198.000,9068.000
11473.000,10134.000,9111.000
11493.000,10269.000,9080.000
11500.000,10052.000,9106.000
11340.000,10148.000,9159.000
11410.000,10082.000,9128.000
11429.000,10053.000,9032.000
11400.000,10075.000,9205.000
11571.000,10179.000,9227.000
11455.000,10208.000,9147.000
11530.000,10213.000,9212.000
11419.000,10197.000,9165.000
11724.000,10210.000,9252.000
11691.000,10246.000,9255.000
11682.000,10184.000,9250.000
11558.000,10160.000,9116.000
11581.000,10183.000,9269.000
11599.000,10235.000,9300.000
11535.000,10115.000,9148.000
11401.000,10131.000,9295.000
11603.000,10175.000,9172.000
11643.000,10092.000,9144.000
11525.000,10005.000,9054.000
11526.000,10074.000,9079.000
11501.000,10095.000,9137.000
11392.000,10066.000,9057.000
11374.000,10052.000,9054.000
11296.000,9900.000,9042.000
11340.000,9896.000,8964.000
11349.000,9940.000,8993.000
11244.000,9978.000,8973.000
11215.000,9931.000,8885.000
11190.000,9755.000,8900.000
11169.000,9930.000,8998.000
11276.000,9931.000,9000.000
11298.000,9881.000,8991.000
11481.000,9945.000,9028.000
11364.000,10053.000,8961.000
11441.000,9909.000,9084.000
11480.000,9947.000,9001.000
11481.000,9965.000,9055.000
11351.000,10017.000,9060.000
11400.000,10012.000,9068.000
11420.000,10161.000,8985.000
11351.000,10010.000,9044.000
11299.000,9863.000,9005.000
11199.000,9902.000,8900.000
11256.000,9842.000,8849.000
11046.000,9815.000,8801.000
11038.000,9729.000,8800.000
10991.000,9699.000,8811.000
10989.000,9653.000,8669.000
10914.000,9620.000,8668.000
10996.000,9611.000,8645.000
10934.000,9480.000,8657.000
10887.000,9580.000,8630.000
10942.000,9598.000,8648.000
10866.000,9522.000,8636.000
10950.000,9488.000,8551.000
10998.000,9619.000,8616.000
10859.000,9637.000,8568.000
10931.000,9654.000,8622.000
10859.000,9502.000,8631.000
10880.000,9540.000,8697.000
10985.000,9499.000,8594.000
10843.000,9584.000,8497.000
10982.000,9509.000,8600.000
10931.000,9585.000,8630.000
10778.000,9538.000,8497.000
10717.000,9488.000,8459.000
10745.000,9501.000,8532.000
10790.000,9504.000,8621.000
10694.000,9474.000,8443.000
10833.000,9459.000,8499.000
10685.000,9472.000,8534.000
10711.000,9293.000,8460.000
10760.000,9379.000,8419.000
10668.000,9374.000,8588.000
10573.000,9362.000,8453.000
10556.000,9446.000,8382.000
10546.000,9411.000,8432.000
10544.000,9283.000,8367.000
10623.000,9245.000,8378.000
10443.000,9274.000,8355.000
10421.000,9125.000,8305.000
10448.000,9231.000,8263.000
10447.000,9177.000,8240.000
10386.000,9123.000,8322.000
10333.000,9187.000,8186.000
10223.000,9127.000,8208.000
10421.000,9098.000,8153.000
10326.000,9247.000,8176.000
10292.000,9018.000,8096.000
10187.000,9027.000,8104.000
10185.000,9070.000,8110.000
10241.000,8966.000,8155.000
10292.000,9020.000,8109.000
10267.000,9069.000,8101.000
10326.000,8994.000,8096.000
10344.000,9122.000,8150.000
10335.000,9131.000,8275.000
10509.000,9107.000,8259.000
10407.000,9170.000,8264.000
10296.000,9068.000,8166.000
10302.000,9075.000,8261.000
10299.000,9084.000,8174.000
10209.000,8942.000,8279.000
10331.000,9101.000,8187.000
10379.000,9106.000,8117.000
10217.000,9055.000,8162.000
10055.000,9097.000,8177.000
10244.000,9047.000,8133.000
10184.000,8881.000,7977.000
10169.000,8928.000,8105.000
10137.000,8991.000,7947.000
10045.000,8953.000,8003.000
10163.000,8767.000,8033.000
10121.000,8973.000,7959.000
10012.000,8942.000,8031.000
9925.000,8785.000,7897.000
9965.000,8830.000,7922.000
9905.000,8805.000,7980.000
10062.000,8756.000,7774.000
10015.000,8853.000,7901.000
9916.000,8725.000,7835.000
9781.000,8664.000,7865.000
9868.000,8617.000,7879.000
9815.000,8644.000,7803.000
9720.000,8606.000,7773.000
9670.000,8603.000,7753.000
9685.000,8622.000,7665.000
9792.000,8520.000,7625.000
9784.000,8583.000,7790.000
9854.000,8533.000,7767.000
9801.000,8692.000,7832.000
9690.000,8624.000,7768.000
9851.000,8664.000,7838.000
9819.000,8670.000,7788.000
9832.000,8784.000,7881.000
9934.000,8779.000,7936.000
9903.000,8762.000,7910.000
9928.000,8734.000,7988.000
9967.000,8837.000,7968.000
9876.000,8748.000,7921.000
9917.000,8798.000,7896.000
9916.000,8759.000,7921.000
9837.000,8823.000,7945.000
9998.000,8852.000,7968.000
9986.000,8880.000,7921.000
9908.000,8729.000,7864.000
9847.000,8737.000,7922.000
9853.000,8646.000,7880.000
9816.000,8706.000,7820.000
9783.000,8771.000,7899.000
9719.000,8581.000,7773.000
9710.000,8548.000,7690.000
9720.000,8582.000,7715.000
9708.000,8618.000,7713.000
9664.000,8594.000,7739.000
9564.000,8464.000,7731.000
9567.000,8411.000,7681.000
9577.000,8472.000,7639.000
9541.000,8471.000,7633.000
9609.000,8336.000,7613.000
9380.000,8320.000,7547.000
9283.000,8283.000,7456.000
9345.000,8325.000,7546.000
9236.000,8247.000,7397.000
9279.000,8198.000,7460.000
9133.000,8203.000,7315.000
9144.000,8050.000,7252.000
9102.000,8064.000,7315.000
9134.000,8107.000,7227.000
9124.000,8024.000,7271.000
9001.000,8054.000,7222.000
9060.000,8008.000,7241.000
8968.000,7876.000,7097.000
8866.000,7864.000,7068.000
8921.000,7985.000,7120.000
8795.000,7870.000,7083.000
8941.000,7863.000,7058.000
8898.000,7847.000,7199.000
8874.000,7899.000,7075.000
8821.000,7812.000,7129.000
8941.000,7858.000,7012.000
8841.000,7888.000,7029.000
8839.000,7847.000,7024.000
8856.000,7863.000,7112.000
8758.000,7765.000,7065.000
8830.000,7803.000,7000.000
8792.000,7773.000,7017.000
8832.000,7803.000,7006.000
8708.000,7679.000,6903.000
8729.000,7680.000,6911.000
8706.000,7635.000,6820.000
8651.000,7628.000,6796.000
8563.000,7519.000,6855.000
8578.000,7577.000,6803.000
8459.000,7500.000,6758.000
8424.000,7481.000,6762.000
8439.000,7463.000,6728.000
8375.000,7396.000,6684.000
8382.000,7384.000,6637.000
8281.000,7290.000,6636.000
8253.000,7379.000,6624.000
8323.000,7378.000,6663.000
8187.000,7260.000,6574.000
8244.000,7182.000,6496.000
8204.000,7180.000,6519.000
8223.000,7250.000,6580.000
8249.000,7212.000,6496.000
8223.000,7203.000,6483.000
8121.000,7202.000,6460.000
8075.000,7173.000,6338.000
8053.000,7067.000,6404.000
8076.000,7114.000,6342.000
8047.000,7097.000,6286.000
8019.000,7080.000,6349.000
8081.000,6993.000,6409.000
7996.000,6977.000,6284.000
7968.000,7063.000,6282.000
7880.000,7006.000,6297.000
7911.000,6985.000,6264.000
7947.000,6967.000,6289.000
8005.000,6941.000,6241.000
7941.000,7040.000,6344.000
7874.000,7052.000,6376.000
7914.000,6933.000,6301.000
7843.000,7032.000,6424.000
7980.000,6976.000,6286.000
7976.000,6897.000,6319.000
7886.000,7017.000,6213.000
7895.000,6998.000,6210.000
7822.000,6952.000,6231.000
7841.000,6953.000,6216.000
7824.000,6850.000,6178.000
7657.000,6751.000,6116.000
7697.000,6862.000,6063.000
7672.000,6819.000,6061.000
7645.000,6766.000,6084.000
7669.000,6678.000,6070.000
7579.000,6718.000,6107.000
7531.000,6662.000,6048.000
7425.000,6645.000,5976.000
7433.000,6536.000,5975.000
7492.000,6564.000,5849.000
7383.000,6451.000,5890.000
7323.000,6492.000,5805.000
7209.000,6356.000,5771.000
7295.000,6506.000,5808.000
7348.000,6427.000,5825.000
7226.000,6397.000,5770.000
7164.000,6378.000,5711.000
7143.000,6360.000,5692.000
7081.000,6286.000,5629.000
7041.000,6221.000,5640.000
7031.000,6204.000,5573.000
6884.000,6151.000,5600.000
6913.000,6257.000,5553.000
6914.000,6166.000,5556.000
6821.000,6108.000,5511.000
6815.000,6058.000,5513.000
6890.000,6040.000,5491.000
6839.000,6021.000,5435.000
6813.000,6063.000,5391.000
6871.000,6051.000,5450.000
6870.000,6069.000,5479.000
6843.000,6023.000,5420.000
6773.000,5968.000,5464.000
6731.000,6056.000,5431.000
6781.000,6017.000,5487.000
6719.000,6013.000,5407.000
6735.000,5928.000,5385.000
6593.000,5938.000,5399.000
6696.000,5908.000,5432.000
6711.000,5867.000,5330.000
6646.000,5920.000,5328.000
6707.000,5888.000,5393.000
6655.000,5848.000,5239.000
6552.000,5824.000,5291.000
6568.000,5777.000,5308.000
6562.000,5839.000,5250.000
6566.000,5859.000,5241.000
6479.000,5758.000,5208.000
6523.000,5751.000,5169.000
6412.000,5713.000,5125.000
6393.000,5700.000,5051.000
6340.000,5715.000,5120.000
6338.000,5633.000,5098.000
6341.000,5674.000,5060.000
6265.000,5588.000,5048.000
6235.000,5594.000,5065.000
6308.000,5566.000,5025.000
6204.000,5508.000,4979.000
6223.000,5513.000,5029.000
6143.000,5495.000,4941.000
6191.000,5453.000,4879.000
6102.000,5438.000,4934.000
6170.000,5515.000,4968.000
6092.000,5480.000,4906.000
6184.000,5448.000,4911.000
6041.000,5469.000,4985.000
6047.000,5472.000,4880.000
6187.000,5437.000,4867.000
6029.000,5472.000,4899.000
5962.000,5391.000,4902.000
6029.000,5425.000,4932.000
5980.000,5462.000,4910.000
6053.000,5505.000,4869.000
6075.000,5431.000,4928.000
6048.000,5436.000,4866.000
6040.000,5460.000,4849.000
6003.000,5435.000,4936.000
5983.000,5431.000,4911.000
5933.000,5404.000,4841.000
5905.000,5404.000,4823.000
6009.000,5345.000,4785.000
5947.000,5424.000,4882.000
5896.000,5382.000,4894.000
5939.000,5401.000,4767.000
5931.000,5321.000,4724.000
5871.000,5180.000,4719.000
5841.000,5253.000,4674.000
5896.000,5197.000,4670.000
5793.000,5166.000,4701.000
5752.000,5129.000,4645.000
5695.000,5102.000,4585.000
5606.000,4994.000,4513.000
5518.000,4968.000,4517.000
5534.000,4968.000,4484.000
5548.000,4937.000,4518.000
5464.000,4938.000,4466.000
5379.000,4889.000,4408.000
5440.000,4828.000,4385.000
5415.000,4858.000,4389.000
5422.000,4775.000,4374.000
5302.000,4780.000,4340.000
5270.000,4702.000,4293.000
5218.000,4701.000,4264.000
5236.000,4668.000,4337.000
5236.000,4678.000,4225.000
5140.000,4665.000,4248.000
5161.000,4630.000,4247.000
5221.000,4604.000,4189.000
5199.000,4625.000,4169.000
5130.000,4556.000,4191.000
5084.000,4541.000,4117.000
5060.000,4599.000,4143.000
5089.000,4583.000,4146.000
5064.000,4490.000,4155.000
5049.000,4526.000,4150.000
4974.000,4483.000,4102.000
5056.000,4549.000,4094.000
4993.000,4526.000,4172.000
4998.000,4522.000,4107.000
5027.000,4538.000,4123.000
5082.000,4587.000,4187.000
5062.000,4547.000,4186.000
5149.000,4606.000,4138.000
5053.000,4574.000,4177.000
5032.000,4572.000,4205.000
5096.000,4555.000,4172.000
5064.000,4527.000,4232.000
5098.000,4572.000,4131.000
5042.000,4593.000,4138.000
5027.000,4544.000,4137.000
4998.000,4471.000,4115.000
4981.000,4487.000,4108.000
5043.000,4521.000,4132.000
5049.000,4535.000,4215.000
5021.000,4507.000,4106.000
4926.000,4484.000,4104.000
4892.000,4443.000,4081.000
4931.000,4443.000,4099.000
4857.000,4434.000,4042.000
4883.000,4470.000,4033.000
4879.000,4389.000,4045.000
4792.000,4369.000,3989.000
4853.000,4425.000,4006.000
4919.000,4425.000,4064.000
4868.000,4410.000,4038.000
4892.000,4505.000,4003.000
4911.000,4408.000,4114.000
4981.000,4489.000,4119.000
4908.000,4483.000,4097.000
4968.000,4515.000,4147.000
4985.000,4529.000,4179.000
4932.000,4559.000,4067.000
4998.000,4546.000,4138.000
4986.000,4549.000,4113.000
4969.000,4550.000,4132.000
4975.000,4485.000,4124.000
4990.000,4536.000,4071.000
5061.000,4583.000,4124.000
5052.000,4423.000,4171.000
4936.000,4476.000,4145.000
4917.000,4478.000,4149.000
4930.000,4455.000,4112.000
4923.000,4529.000,4095.000
4937.000,4493.000,4100.000
4883.000,4387.000,4090.000
4964.000,4444.000,4048.000
4826.000,4462.000,4035.000
4849.000,4365.000,3985.000
4782.000,4350.000,3984.000
4839.000,4368.000,4034.000
4769.000,4332.000,3978.000
4827.000,4378.000,3993.000
4813.000,4356.000,3950.000
4762.000,4320.000,3962.000
4787.000,4308.000,3925.000
4747.000,4353.000,3989.000
4786.000,4230.000,3925.000
4737.000,4329.000,3940.000
4788.000,4264.000,3987.000
4838.000,4299.000,3956.000
4835.000,4325.000,3966.000
4797.000,4309.000,3989.000
4778.000,4374.000,4045.000
4858.000,4348.000,3964.000
4892.000,4409.000,4019.000
4843.000,4378.000,3968.000
4838.000,4362.000,3963.000
4891.000,4363.000,3977.000
4901.000,4467.000,4059.000
4934.000,4404.000,4065.000
4889.000,4366.000,4056.000
4907.000,4420.000,4077.000
4893.000,4410.000,3973.000
4933.000,4444.000,3996.000
4926.000,4451.000,4043.000
4912.000,4433.000,4012.000
4908.000,4425.000,3997.000
4873.000,4406.000,4056.000
4933.000,4411.000,4034.000
4899.000,4409.000,4041.000
4973.000,4388.000,4056.000
4893.000,4390.000,3948.000
4903.000,4379.000,3996.000
4852.000,4333.000,3973.000
4849.000,4379.000,3990.000
4934.000,4362.000,4014.000
4817.000,4467.000,3947.000
4872.000,4377.000,3949.000
4766.000,4371.000,3954.000
4828.000,4336.000,3958.000
4775.000,4297.000,3878.000
4739.000,4310.000,3893.000
4773.000,4254.000,3943.000
4760.000,4309.000,3910.000
4826.000,4294.000,3927.000
4728.000,4295.000,3887.000
4682.000,4297.000,3962.000
4749.000,4278.000,3867.000
4721.000,4269.000,3926.000
4734.000,4245.000,3885.000
4739.000,4318.000,3905.000
4789.000,4323.000,3925.000
4707.000,4279.000,3901.000
4744.000,4276.000,3945.000
4748.000,4267.000,3922.000
4777.000,4285.000,3932.000
4749.000,4357.000,3914.000
4782.000,4313.000,3949.000
4736.000,4326.000,4007.000
4851.000,4388.000,3985.000
4834.000,4375.000,4031.000
4830.000,4373.000,4068.000
4934.000,4440.000,4022.000
4905.000,4382.000,4060.000
4870.000,4375.000,4049.000
4896.000,4433.000,4009.000
4900.000,4385.000,4038.000
4933.000,4438.000,4015.000
4949.000,4401.000,4032.000
4823.000,4392.000,4009.000
4865.000,4388.000,3962.000
4859.000,4411.000,3989.000
4988.000,4473.000,3960.000
4924.000,4430.000,3971.000
4906.000,4377.000,4058.000
4811.000,4387.000,4002.000
4820.000,4393.000,3952.000
4818.000,4325.000,3997.000
4811.000,4312.000,3940.000
4819.000,4299.000,3931.000
4770.000,4231.000,3913.000
4819.000,4281.000,3920.000
4766.000,4281.000,3898.000
4704.000,4250.000,3872.000
4705.000,4245.000,3868.000
4730.000,4258.000,3890.000
4691.000,4283.000,3876.000
4667.000,4260.000,3835.000
4712.000,4268.000,3896.000
4660.000,4260.000,3893.000
4668.000,4229.000,3934.000
4743.000,4327.000,3910.000
4702.000,4303.000,3885.000
4794.000,4248.000,3893.000
4767.000,4348.000,3948.000
4753.000,4295.000,3949.000
4808.000,4316.000,3952.000
4843.000,4297.000,4008.000
4813.000,4306.000,3977.000
4834.000,4267.000,3972.000
4818.000,4341.000,3947.000
4860.000,4373.000,3960.000
4814.000,4382.000,3956.000
4835.000,4371.000,3961.000
4850.000,4382.000,3983.000
4755.000,4381.000,3924.000
4807.000,4425.000,3963.000
4868.000,4392.000,3937.000
4819.000,4331.000,3947.000
4840.000,4331.000,3965.000
4700.000,4333.000,3930.000
4753.000,4283.000,3954.000
4733.000,4313.000,3917.000
4772.000,4274.000,3872.000
4710.000,4278.000,3861.000
4679.000,4268.000,3897.000
4672.000,4234.000,3824.000
4707.000,4172.000,3876.000
4718.000,4248.000,3846.000
4652.000,4230.000,3846.000
4657.000,4223.000,3851.000
4677.000,4231.000,3851.000
4666.000,4176.000,3806.000
4631.000,4178.000,3843.000
4651.000,4207.000,3854.000
4667.000,4158.000,3833.000
4663.000,4206.000,3835.000
4688.000,4201.000,3820.000
4628.000,4216.000,3850.000
4743.000,4235.000,3832.000
4644.000,4242.000,3864.000
4736.000,4268.000,3857.000
4713.000,4238.000,3866.000
4713.000,4256.000,3883.000
4746.000,4271.000,3951.000
4730.000,4304.000,3907.000
4755.000,4261.000,3883.000
4750.000,4312.000,3882.000
4729.000,4365.000,3923.000
4842.000,4312.000,3965.000
4738.000,4238.000,3859.000
4756.000,4257.000,3899.000
4746.000,4261.000,3856.000
4723.000,4256.000,3878.000
4726.000,4227.000,3863.000
4692.000,4222.000,3853.000
4651.000,4185.000,3866.000
4769.000,4200.000,3821.000
4628.000,4222.000,3817.000
4657.000,4196.000,3825.000
4642.000,4150.000,3832.000
4588.000,4178.000,3795.000
4577.000,4149.000,3751.000
4555.000,4164.000,3800.000
4537.000,4080.000,3792.000
4537.000,4041.000,3709.000
4494.000,4123.000,3664.000
4546.000,4048.000,3711.000
4471.000,4042.000,3721.000
4448.000,4032.000,3689.000
4486.000,4089.000,3725.000
4510.000,4128.000,3742.000
4573.000,4095.000,3695.000
4482.000,4080.000,3690.000
4523.000,4075.000,3745.000
4460.000,4057.000,3669.000
4453.000,4053.000,3713.000
4431.000,4129.000,3682.000
4544.000,4030.000,3721.000
4509.000,4054.000,3723.000
4523.000,4061.000,3724.000
4537.000,4074.000,3725.000
4452.000,4092.000,3735.000
4555.000,4033.000,3738.000
4539.000,4054.000,3735.000
4514.000,4077.000,3759.000
4500.000,4079.000,3665.000
4479.000,4101.000,3692.000
4483.000,4013.000,3728.000
4477.000,4045.000,3718.000
4448.000,4013.000,3670.000
4381.000,4056.000,3701.000
4387.000,3992.000,3619.000
4365.000,3941.000,3657.000
4390.000,3946.000,3659.000
4328.000,3937.000,3583.000
4355.000,3923.000,3572.000
4335.000,3988.000,3613.000
4323.000,3896.000,3587.000
4274.000,3873.000,3521.000
4261.000,3869.000,3571.000
4284.000,3848.000,3520.000
4240.000,3838.000,3517.000
4261.000,3810.000,3542.000
4229.000,3771.000,3531.000
4213.000,3812.000,3501.000
4188.000,3824.000,3458.000
4192.000,3775.000,3410.000
4145.000,3775.000,3420.000
4142.000,3769.000,3415.000
4125.000,3705.000,3441.000
4176.000,3782.000,3399.000
4092.000,3722.000,3415.000
4089.000,3653.000,3356.000
4103.000,3650.000,3391.000
4092.000,3733.000,3384.000
4061.000,3684.000,3359.000
4079.000,3670.000,3392.000
4078.000,3668.000,3376.000
4097.000,3711.000,3398.000
4100.000,3696.000,3441.000
4066.000,3722.000,3415.000
4039.000,3694.000,3380.000
4093.000,3780.000,3399.000
4167.000,3750.000,3415.000
4060.000,3750.000,3449.000
4061.000,3672.000,3427.000
4072.000,3706.000,3385.000
4092.000,3757.000,3384.000
4123.000,3739.000,3401.000
4052.000,3705.000,3337.000
4056.000,3689.000,3358.000
4091.000,3655.000,3411.000
4066.000,3685.000,3346.000
3958.000,3643.000,3316.000
4008.000,3652.000,3348.000
3991.000,3664.000,3320.000
3992.000,3627.000,3298.000
3978.000,3657.000,3372.000
4025.000,3626.000,3279.000
3999.000,3611.000,3326.000
3923.000,3632.000,3319.000
3906.000,3527.000,3255.000
3917.000,3574.000,3307.000
3881.000,3576.000,3267.000
3922.000,3557.000,3220.000
3847.000,3478.000,3238.000
3922.000,3476.000,3202.000
3814.000,3451.000,3173.000
3770.000,3460.000,3175.000
3774.000,3463.000,3173.000
3708.000,3407.000,3167.000
3744.000,3361.000,3104.000
3752.000,3440.000,3110.000
3710.000,3403.000,3157.000
3758.000,3386.000,3130.000
3722.000,3399.000,3145.000
3636.000,3425.000,3114.000
3657.000,3376.000,3064.000
3647.000,3325.000,3086.000
3674.000,3344.000,3009.000
3713.000,3343.000,3112.000
3630.000,3334.000,3051.000
3659.000,3340.000,3044.000
3629.000,3364.000,3073.000
3747.000,3365.000,3092.000
3686.000,3370.000,3042.000
3651.000,3297.000,3081.000
3638.000,3309.000,3090.000
3716.000,3376.000,3075.000
3695.000,3387.000,3080.000
3664.000,3329.000,3066.000
3705.000,3319.000,3085.000
3628.000,3332.000,3086.000
3603.000,3262.000,3053.000
3605.000,3338.000,3026.000
3619.000,3362.000,3045.000
3674.000,3310.000,3055.000
3636.000,3330.000,3067.000
3651.000,3380.000,3067.000
3551.000,3254.000,2960.000
3560.000,3272.000,2980.000
3509.000,3224.000,2995.000
3589.000,3200.000,2975.000
3519.000,3211.000,2988.000
3545.000,3238.000,2966.000
3562.000,3253.000,3002.000
3490.000,3246.000,2943.000
3524.000,3183.000,2936.000
3473.000,3224.000,2938.000
3392.000,3155.000,2944.000
3469.000,3142.000,2893.000
3401.000,3169.000,2923.000
3437.000,3104.000,2819.000
3344.000,3118.000,2899.000
3374.000,3094.000,2833.000
3351.000,3078.000,2879.000
3310.000,3060.000,2803.000
3317.000,3068.000,2820.000
3322.000,2981.000,2785.000
3283.000,3054.000,2762.000
3273.000,3015.000,2738.000
3246.000,2990.000,2709.000
3239.000,2969.000,2779.000
3195.000,2952.000,2729.000
3207.000,2922.000,2683.000
3179.000,2921.000,2715.000
3177.000,2983.000,2743.000
3195.000,2946.000,2699.000
3228.000,2952.000,2700.000
3198.000,2971.000,2728.000
3194.000,2933.000,2710.000
3179.000,2949.000,2673.000
3153.000,2930.000,2704.000
3170.000,2965.000,2699.000
3168.000,2944.000,2704.000
3183.000,2923.000,2730.000
3168.000,2896.000,2684.000
3165.000,2901.000,2679.000
3176.000,2879.000,2704.000
3147.000,2908.000,2693.000
3181.000,2940.000,2674.000
3113.000,2904.000,2703.000
3084.000,2877.000,2668.000
3153.000,2864.000,2657.000
3061.000,2873.000,2679.000
3119.000,2861.000,2678.000
3126.000,2845.000,2667.000
3019.000,2825.000,2652.000
3070.000,2848.000,2659.000
3077.000,2827.000,2606.000
3086.000,2804.000,2559.000
3035.000,2771.000,2566.000
3040.000,2784.000,2566.000
2984.000,2764.000,2568.000
2944.000,2795.000,2553.000
3002.000,2771.000,2516.000
2964.000,2738.000,2538.000
2923.000,2718.000,2499.000
2911.000,2680.000,2505.000
2892.000,2668.000,2542.000
2934.000,2671.000,2536.000
2866.000,2682.000,2485.000
2861.000,2616.000,2481.000
2860.000,2667.000,2452.000
2853.000,2632.000,2481.000
2854.000,2599.000,2428.000
2798.000,2591.000,2435.000
2778.000,2558.000,2370.000
2784.000,2568.000,2388.000
2796.000,2563.000,2443.000
2764.000,2575.000,2420.000
2772.000,2518.000,2384.000
2747.000,2567.000,2361.000
2735.000,2569.000,2378.000
2713.000,2513.000,2380.000
2767.000,2514.000,2361.000
2749.000,2542.000,2338.000
2756.000,2568.000,2396.000
2735.000,2554.000,2365.000
2733.000,2517.000,2344.000
2737.000,2540.000,2361.000
2710.000,2511.000,2345.000
2726.000,2544.000,2345.000
2687.000,2479.000,2355.000
2714.000,2502.000,2350.000
2714.000,2495.000,2335.000
2685.000,2481.000,2322.000
2688.000,2504.000,2279.000
2662.000,2482.000,2350.000
2640.000,2493.000,2303.000
2638.000,2487.000,2311.000
2644.000,2452.000,2301.000
2642.000,2445.000,2292.000
2651.000,2431.000,2289.000
2591.000,2414.000,2259.000
2552.000,2389.000,2255.000
2595.000,2397.000,2243.000
2562.000,2399.000,2233.000
2569.000,2393.000,2262.000
2565.000,2387.000,2224.000
2527.000,2372.000,2208.000
2524.000,2389.000,2235.000
2516.000,2341.000,2255.000
2495.000,2334.000,2194.000
2522.000,2307.000,2188.000
2464.000,2304.000,2229.000
2448.000,2314.000,2169.000
2447.000,2284.000,2107.000
2400.000,2250.000,2113.000
