Focus Mode,Read Mode,Exposure Time (sec),Number of Frames,Start Y,End Y,Date,Time,Position (microns)
Single Acquisition,Spectrum,20.000000,3,105,125,12/11/2020,4:24:17 PM,0.000000,0.000000,40.010000,

1259.000,1268.000,1265.000
1261.000,1255.000,1262.000
1263.000,1263.000,1265.000
1265.000,1262.000,1266.000
1263.000,1263.000,1266.000
1268.000,1260.000,1261.000
1267.000,1260.000,1267.000
1264.000,1265.000,1262.000
1255.000,1259.000,1267.000
1269.000,1267.000,1267.000
1267.000,1251.000,1273.000
1267.000,1263.000,1268.000
1261.000,1270.000,1274.000
1270.000,1265.000,1275.000
1271.000,1267.000,1264.000
1274.000,1265.000,1268.000
1267.000,1263.000,1278.000
1275.000,1264.000,1280.000
1273.000,1272.000,1278.000
1282.000,1272.000,1268.000
1281.000,1267.000,1279.000
1282.000,1286.000,1294.000
1283.000,1279.000,1279.000
1278.000,1272.000,1287.000
1288.000,1285.000,1293.000
1288.000,1279.000,1296.000
1288.000,1287.000,1298.000
1290.000,1284.000,1293.000
1294.000,1295.000,1297.000
1299.000,1299.000,1300.000
1302.000,1299.000,1299.000
1295.000,1302.000,1318.000
1297.000,1303.000,1292.000
1309.000,1294.000,1308.000
1303.000,1298.000,1315.000
1312.000,1303.000,1323.000
1315.000,1300.000,1323.000
1310.000,1315.000,1317.000
1322.000,1325.000,1325.000
1318.000,1319.000,1338.000
1323.000,1327.000,1338.000
1323.000,1323.000,1333.000
1339.000,1327.000,1342.000
1333.000,1328.000,1339.000
1343.000,1343.000,1359.000
1354.000,1336.000,1356.000
1360.000,1347.000,1360.000
1354.000,1341.000,1365.000
1345.000,1352.000,1372.000
1367.000,1372.000,1372.000
1379.000,1357.000,1386.000
1384.000,1370.000,1389.000
1388.000,1378.000,1383.000
1396.000,1379.000,1390.000
1392.000,1396.000,1402.000
1409.000,1384.000,1399.000
1417.000,1393.000,1408.000
1410.000,1407.000,1409.000
1422.000,1415.000,1410.000
1405.000,1409.000,1422.000
1425.000,1412.000,1427.000
1422.000,1421.000,1406.000
1418.000,1429.000,1426.000
1429.000,1434.000,1431.000
1436.000,1443.000,1424.000
1455.000,1451.000,1451.000
1462.000,1461.000,1460.000
1488.000,1476.000,1495.000
1492.000,1467.000,1497.000
1494.000,1502.000,1514.000
1518.000,1481.000,1526.000
1515.000,1505.000,1541.000
1531.000,1519.000,1541.000
1531.000,1528.000,1582.000
1546.000,1563.000,1589.000
1584.000,1568.000,1603.000
1610.000,1564.000,1591.000
1609.000,1591.000,1621.000
1632.000,1607.000,1609.000
1632.000,1617.000,1662.000
1645.000,1647.000,1647.000
1673.000,1653.000,1668.000
1677.000,1651.000,1679.000
1689.000,1685.000,1676.000
1683.000,1700.000,1714.000
1709.000,1708.000,1729.000
1697.000,1744.000,1739.000
1740.000,1739.000,1744.000
1763.000,1758.000,1745.000
1764.000,1763.000,1748.000
1806.000,1751.000,1787.000
1791.000,1796.000,1817.000
1824.000,1826.000,1830.000
1872.000,1860.000,1884.000
1870.000,1866.000,1867.000
1920.000,1924.000,1938.000
1996.000,1988.000,2024.000
2039.000,2043.000,2084.000
2167.000,2135.000,2130.000
2247.000,2196.000,2210.000
2326.000,2294.000,2315.000
2413.000,2379.000,2420.000
2558.000,2492.000,2540.000
2603.000,2539.000,2601.000
2732.000,2633.000,2672.000
2695.000,2690.000,2751.000
2763.000,2717.000,2762.000
2808.000,2711.000,2757.000
2856.000,2829.000,2791.000
2879.000,2757.000,2766.000
2822.000,2745.000,2833.000
2832.000,2775.000,2907.000
2816.000,2780.000,2854.000
2848.000,2792.000,2792.000
2831.000,2803.000,2818.000
2888.000,2871.000,2956.000
3015.000,3035.000,3028.000
3137.000,3171.000,3146.000
3375.000,3331.000,3348.000
3713.000,3819.000,3720.000
4428.000,4518.000,4350.000
5838.000,6217.000,5857.000
10105.000,10966.000,9829.000
28214.000,27964.000,23140.000
61584.000,61589.000,61557.000
62147.000,62140.000,62141.000
62067.000,62066.000,62068.000
62013.000,62018.000,62018.000
62023.000,62021.000,62023.000
62011.000,62013.000,62017.000
61994.000,61995.000,61994.000
61996.000,61994.000,61992.000
61992.000,61993.000,61996.000
61985.000,61982.000,61992.000
61987.000,61983.000,61980.000
61983.000,61988.000,61985.000
61978.000,61987.000,61985.000
61984.000,61986.000,61980.000
61987.000,61981.000,61989.000
61979.000,61981.000,61986.000
61981.000,61979.000,61979.000
61977.000,61974.000,61975.000
61981.000,61981.000,61980.000
61979.000,61977.000,61978.000
61980.000,61977.000,61975.000
61983.000,61983.000,61980.000
61979.000,61972.000,61981.000
61975.000,61979.000,61981.000
61980.000,61976.000,61974.000
61979.000,61979.000,61976.000
61974.000,61978.000,61981.000
61979.000,61974.000,61976.000
61979.000,61977.000,61977.000
61978.000,61979.000,61976.000
61976.000,61977.000,61976.000
61979.000,61979.000,61977.000
61972.000,61973.000,61972.000
61977.000,61980.000,61977.000
61982.000,61974.000,61975.000
61976.000,61976.000,61984.000
61975.000,61977.000,61977.000
61977.000,61968.000,61983.000
61968.000,61980.000,61974.000
61978.000,61981.000,61974.000
61980.000,61973.000,61970.000
61976.000,61981.000,61976.000
61975.000,61976.000,61982.000
61980.000,61980.000,61980.000
61985.000,61977.000,61974.000
61975.000,61982.000,61976.000
61978.000,61979.000,61978.000
61981.000,61981.000,61977.000
61980.000,61985.000,61987.000
61985.000,61984.000,61981.000
61990.000,61999.000,61998.000
62023.000,62019.000,62021.000
62507.000,54220.000,65156.000
1672.000,1652.000,1650.000
1562.000,1573.000,1581.000
1557.000,1540.000,1534.000
1517.000,1534.000,1545.000
1507.000,1517.000,1523.000
1492.000,1510.000,1512.000
1489.000,1491.000,1492.000
1482.000,1464.000,1464.000
1470.000,1465.000,1469.000
1472.000,1457.000,1466.000
1444.000,1447.000,1456.000
1448.000,1474.000,1458.000
1447.000,1439.000,1451.000
1444.000,1436.000,1436.000
1428.000,1445.000,1420.000
1424.000,1431.000,1411.000
1414.000,1422.000,1428.000
1433.000,1410.000,1415.000
1404.000,1425.000,1413.000
1426.000,1417.000,1402.000
1411.000,1419.000,1404.000
1405.000,1408.000,1399.000
1409.000,1395.000,1413.000
1387.000,1401.000,1402.000
1389.000,1402.000,1384.000
1383.000,1396.000,1383.000
1379.000,1403.000,1389.000
1381.000,1382.000,1397.000
1378.000,1371.000,1377.000
1376.000,1368.000,1371.000
1368.000,1372.000,1366.000
1378.000,1378.000,1371.000
1367.000,1355.000,1377.000
1363.000,1370.000,1379.000
1362.000,1352.000,1382.000
1353.000,1359.000,1362.000
1365.000,1351.000,1358.000
1369.000,1357.000,1358.000
1351.000,1352.000,1359.000
1349.000,1351.000,1355.000
1337.000,1345.000,1339.000
1351.000,1348.000,1353.000
1351.000,1358.000,1347.000
1343.000,1350.000,1343.000
1343.000,1349.000,1340.000
1325.000,1348.000,1323.000
1344.000,1340.000,1335.000
1336.000,1332.000,1332.000
1334.000,1347.000,1339.000
1323.000,1339.000,1332.000
1329.000,1331.000,1339.000
1328.000,1337.000,1335.000
1328.000,1333.000,1331.000
1332.000,1329.000,1333.000
1331.000,1330.000,1332.000
1335.000,1318.000,1323.000
1318.000,1326.000,1313.000
1324.000,1325.000,1328.000
1327.000,1321.000,1320.000
1319.000,1321.000,1325.000
1322.000,1326.000,1325.000
1312.000,1319.000,1325.000
1316.000,1309.000,1313.000
1315.000,1324.000,1318.000
1315.000,1311.000,1310.000
1313.000,1309.000,1314.000
1311.000,1319.000,1312.000
1303.000,1309.000,1320.000
1313.000,1315.000,1314.000
1312.000,1307.000,1314.000
1303.000,1308.000,1299.000
1304.000,1314.000,1310.000
1304.000,1306.000,1305.000
1306.000,1303.000,1309.000
1303.000,1300.000,1303.000
1306.000,1312.000,1302.000
1310.000,1306.000,1301.000
1302.000,1305.000,1301.000
1297.000,1303.000,1297.000
1301.000,1291.000,1298.000
1303.000,1303.000,1307.000
1304.000,1299.000,1297.000
1305.000,1292.000,1294.000
1307.000,1304.000,1296.000
1300.000,1305.000,1299.000
1303.000,1294.000,1297.000
1299.000,1290.000,1299.000
1296.000,1292.000,1302.000
1301.000,1300.000,1296.000
1295.000,1307.000,1287.000
1298.000,1296.000,1301.000
1292.000,1291.000,1301.000
1302.000,1288.000,1289.000
1302.000,1305.000,1296.000
1302.000,1301.000,1286.000
1305.000,1292.000,1299.000
1290.000,1299.000,1299.000
1302.000,1298.000,1299.000
1302.000,1288.000,1295.000
1298.000,1290.000,1300.000
1302.000,1297.000,1312.000
1302.000,1301.000,1296.000
1300.000,1305.000,1303.000
1314.000,1309.000,1298.000
1309.000,1318.000,1304.000
1306.000,1315.000,1302.000
1312.000,1313.000,1314.000
1323.000,1316.000,1328.000
1324.000,1321.000,1334.000
1335.000,1336.000,1332.000
1340.000,1321.000,1342.000
1329.000,1350.000,1339.000
1349.000,1363.000,1345.000
1373.000,1358.000,1361.000
1355.000,1394.000,1369.000
1371.000,1401.000,1375.000
1410.000,1403.000,1401.000
1401.000,1430.000,1422.000
1436.000,1436.000,1428.000
1467.000,1479.000,1451.000
1481.000,1505.000,1494.000
1530.000,1531.000,1530.000
1556.000,1599.000,1576.000
1605.000,1640.000,1595.000
1662.000,1731.000,1636.000
1719.000,1763.000,1700.000
1800.000,1879.000,1813.000
1904.000,1949.000,1913.000
2025.000,2100.000,1984.000
2113.000,2259.000,2147.000
2254.000,2344.000,2237.000
2434.000,2600.000,2451.000
2675.000,2861.000,2629.000
2851.000,3176.000,2961.000
3243.000,3476.000,3255.000
3564.000,3862.000,3559.000
3916.000,4257.000,3970.000
4329.000,4781.000,4430.000
4819.000,5379.000,4892.000
5409.000,5942.000,5367.000
5915.000,6470.000,6031.000
6513.000,7173.000,6591.000
6994.000,8066.000,7180.000
7741.000,9085.000,7781.000
8388.000,10009.000,8514.000
8812.000,10551.000,9047.000
9450.000,10979.000,9605.000
9912.000,11199.000,10081.000
10399.000,11666.000,10511.000
10724.000,12110.000,10917.000
11073.000,12552.000,11214.000
11217.000,12613.000,11415.000
11357.000,12930.000,11486.000
11488.000,13068.000,11635.000
11584.000,13081.000,11636.000
11587.000,13082.000,11859.000
11611.000,13203.000,11872.000
11810.000,13285.000,11899.000
11788.000,13364.000,12017.000
11759.000,13417.000,11987.000
11722.000,13224.000,11904.000
11730.000,13277.000,11975.000
11718.000,13223.000,11804.000
11724.000,13273.000,11987.000
11815.000,13281.000,11878.000
11845.000,13383.000,12030.000
11803.000,13444.000,12002.000
11812.000,13210.000,12006.000
11877.000,13418.000,12055.000
11943.000,13438.000,12085.000
11931.000,13641.000,12002.000
11806.000,13481.000,12070.000
12069.000,13586.000,12144.000
11969.000,13554.000,11988.000
11922.000,13393.000,12018.000
11959.000,13309.000,11954.000
11910.000,13442.000,12188.000
11964.000,13540.000,12176.000
11981.000,13460.000,12008.000
11983.000,13450.000,12024.000
12025.000,13614.000,12178.000
11834.000,13556.000,12047.000
11881.000,13470.000,12108.000
11932.000,13468.000,12075.000
11968.000,13555.000,12087.000
12042.000,13617.000,12048.000
11997.000,13547.000,12172.000
11992.000,13652.000,12207.000
12031.000,13552.000,12150.000
11961.000,13632.000,12182.000
11944.000,13496.000,12083.000
11876.000,13452.000,12051.000
12060.000,13630.000,12140.000
12026.000,13612.000,12200.000
12149.000,13615.000,12296.000
11988.000,13706.000,12273.000
12108.000,13693.000,12286.000
12053.000,13586.000,12306.000
12121.000,13628.000,12168.000
12122.000,13745.000,12172.000
12139.000,13728.000,12392.000
12215.000,13823.000,12330.000
12299.000,13894.000,12414.000
12335.000,13830.000,12535.000
12242.000,14021.000,12603.000
12343.000,13988.000,12576.000
12361.000,14055.000,12602.000
12534.000,14123.000,12578.000
12443.000,14090.000,12505.000
12441.000,13999.000,12616.000
12478.000,14076.000,12581.000
12412.000,14153.000,12545.000
12373.000,14143.000,12612.000
12419.000,14141.000,12739.000
12532.000,14117.000,12678.000
12586.000,14218.000,12699.000
12567.000,14268.000,12675.000
12602.000,14327.000,12767.000
12630.000,14370.000,12846.000
12599.000,14213.000,12711.000
12603.000,14258.000,12790.000
12647.000,14261.000,12809.000
12690.000,14472.000,12816.000
12692.000,14402.000,12929.000
12617.000,14358.000,12839.000
12606.000,14308.000,12766.000
12646.000,14227.000,12826.000
12588.000,14270.000,12820.000
12481.000,14270.000,12690.000
12604.000,14240.000,12850.000
12481.000,14252.000,12856.000
12543.000,14357.000,12850.000
12718.000,14328.000,12744.000
12649.000,14391.000,12661.000
12645.000,14423.000,12761.000
12534.000,14322.000,12760.000
12637.000,14195.000,12846.000
12564.000,14160.000,12791.000
12684.000,14360.000,12694.000
12632.000,14370.000,12867.000
12564.000,14271.000,12683.000
12711.000,14271.000,12894.000
12556.000,14232.000,12700.000
12591.000,14429.000,12887.000
12633.000,14371.000,12798.000
12612.000,14356.000,12849.000
12753.000,14389.000,12945.000
12665.000,14543.000,12959.000
12707.000,14636.000,13004.000
12839.000,14498.000,12983.000
12735.000,14567.000,13010.000
12866.000,14555.000,12988.000
12841.000,14579.000,13018.000
12841.000,14542.000,13071.000
13035.000,14720.000,13073.000
12986.000,14807.000,13193.000
12936.000,14593.000,13098.000
12928.000,14695.000,13210.000
13003.000,14706.000,13145.000
12967.000,14855.000,13158.000
12935.000,14903.000,13201.000
13086.000,14719.000,13133.000
12980.000,14860.000,13271.000
13050.000,14857.000,13245.000
13034.000,14756.000,13077.000
12973.000,14603.000,13232.000
12982.000,14762.000,13151.000
13138.000,14837.000,13127.000
13004.000,14930.000,13170.000
13084.000,14999.000,13181.000
13174.000,14951.000,13397.000
13177.000,14811.000,13268.000
13192.000,14961.000,13317.000
13091.000,14933.000,13383.000
13127.000,15025.000,13275.000
12955.000,14939.000,13313.000
13172.000,14920.000,13226.000
13099.000,14861.000,13305.000
13087.000,14900.000,13261.000
13173.000,14966.000,13316.000
13027.000,14986.000,13322.000
13094.000,15025.000,13253.000
13187.000,14960.000,13363.000
13056.000,14927.000,13274.000
13083.000,14980.000,13307.000
13225.000,15015.000,13386.000
13128.000,14862.000,13383.000
13107.000,15124.000,13330.000
13049.000,14939.000,13348.000
13186.000,14953.000,13391.000
13128.000,14969.000,13293.000
13229.000,14979.000,13322.000
13094.000,15062.000,13343.000
13251.000,15002.000,13309.000
13197.000,14970.000,13361.000
13195.000,15010.000,13495.000
13181.000,15039.000,13399.000
13226.000,15006.000,13345.000
13259.000,15121.000,13506.000
13202.000,15043.000,13439.000
13272.000,15125.000,13470.000
13318.000,15140.000,13612.000
13459.000,15136.000,13581.000
13347.000,15135.000,13680.000
13218.000,15188.000,13378.000
13460.000,15074.000,13480.000
13393.000,15169.000,13539.000
13292.000,15158.000,13624.000
13377.000,15339.000,13702.000
13455.000,15253.000,13669.000
13282.000,15091.000,13599.000
13413.000,15374.000,13612.000
13502.000,15303.000,13761.000
13458.000,15343.000,13698.000
13344.000,15314.000,13651.000
13403.000,15344.000,13600.000
13499.000,15382.000,13734.000
13496.000,15421.000,13667.000
13554.000,15237.000,13631.000
13529.000,15524.000,13789.000
13603.000,15415.000,13737.000
13474.000,15447.000,13821.000
13530.000,15462.000,13685.000
13521.000,15543.000,13732.000
13433.000,15446.000,13894.000
13568.000,15519.000,13593.000
13600.000,15491.000,13835.000
13731.000,15523.000,13851.000
13701.000,15379.000,13790.000
13800.000,15547.000,13887.000
13729.000,15411.000,13824.000
13642.000,15648.000,13925.000
13755.000,15610.000,13979.000
13628.000,15578.000,13900.000
13605.000,15505.000,13923.000
13645.000,15538.000,13803.000
13651.000,15623.000,13917.000
13613.000,15612.000,13751.000
13653.000,15496.000,13799.000
13500.000,15531.000,13911.000
13518.000,15514.000,13785.000
13511.000,15456.000,13970.000
13672.000,15336.000,13666.000
13591.000,15453.000,13686.000
13562.000,15556.000,13738.000
13549.000,15414.000,13740.000
13635.000,15257.000,13775.000
13445.000,15312.000,13817.000
13534.000,15432.000,13682.000
13643.000,15456.000,13737.000
13660.000,15548.000,13873.000
13675.000,15580.000,13685.000
13607.000,15618.000,13824.000
13589.000,15506.000,13790.000
13532.000,15298.000,13848.000
13563.000,15610.000,13846.000
13581.000,15496.000,13826.000
13527.000,15481.000,13754.000
13661.000,15556.000,13710.000
13685.000,15531.000,13730.000
13687.000,15714.000,13883.000
13647.000,15593.000,13843.000
13711.000,15640.000,13805.000
13582.000,15502.000,13821.000
13642.000,15651.000,13821.000
13695.000,15558.000,14042.000
13748.000,15712.000,13907.000
13785.000,15642.000,13987.000
13667.000,15669.000,13882.000
13823.000,15608.000,13872.000
13799.000,15722.000,13932.000
13751.000,15683.000,13889.000
13718.000,15723.000,14038.000
13722.000,15655.000,13990.000
13744.000,15799.000,14116.000
13792.000,15688.000,14127.000
13815.000,15763.000,13934.000
13772.000,15800.000,14021.000
13725.000,15736.000,13886.000
13842.000,15760.000,14039.000
13875.000,15908.000,14048.000
13801.000,15735.000,14048.000
13827.000,15866.000,14046.000
13903.000,15961.000,14243.000
13979.000,15862.000,14105.000
14095.000,15883.000,14204.000
14035.000,15855.000,14156.000
14015.000,15985.000,14266.000
13999.000,15917.000,14211.000
14080.000,15960.000,14089.000
14040.000,15929.000,14222.000
14049.000,16061.000,14406.000
14210.000,16012.000,14323.000
14002.000,15903.000,14240.000
14062.000,16118.000,14319.000
14028.000,16044.000,14267.000
13992.000,16051.000,14284.000
14102.000,16181.000,14177.000
14202.000,16006.000,14307.000
14053.000,16066.000,14235.000
14085.000,16036.000,14210.000
13968.000,16057.000,14339.000
13933.000,15893.000,14171.000
13820.000,15946.000,14118.000
13883.000,15863.000,14184.000
13915.000,15940.000,14137.000
13980.000,15971.000,14122.000
14058.000,15992.000,14179.000
13957.000,16088.000,14250.000
13971.000,15998.000,14246.000
13949.000,15907.000,14202.000
14083.000,15902.000,14311.000
14050.000,16077.000,14367.000
14141.000,15984.000,14338.000
14131.000,16076.000,14288.000
13984.000,15889.000,14247.000
14011.000,16012.000,14174.000
14100.000,16046.000,14208.000
14147.000,16092.000,14392.000
13953.000,15989.000,14266.000
13901.000,15832.000,14205.000
13797.000,15598.000,14152.000
13841.000,15783.000,14117.000
13878.000,15854.000,13988.000
13862.000,15839.000,14155.000
13964.000,15675.000,14202.000
13820.000,15965.000,14143.000
13855.000,15872.000,14242.000
13960.000,15773.000,14098.000
13885.000,15874.000,14146.000
13809.000,15798.000,14062.000
13958.000,15896.000,14092.000
13848.000,15870.000,14119.000
13938.000,15755.000,14135.000
13880.000,15921.000,14053.000
13866.000,15705.000,14088.000
13909.000,15879.000,14015.000
13805.000,15744.000,14087.000
13742.000,15804.000,14051.000
13796.000,15764.000,14059.000
13880.000,15677.000,14019.000
13752.000,15609.000,14109.000
13900.000,15835.000,14091.000
13908.000,15888.000,14230.000
13951.000,15946.000,14052.000
13813.000,15862.000,14146.000
13911.000,15817.000,14148.000
14023.000,16039.000,14142.000
13886.000,15851.000,14159.000
14030.000,16028.000,14163.000
14070.000,16001.000,14192.000
13998.000,15870.000,14112.000
13842.000,15896.000,14084.000
13975.000,15867.000,14186.000
13943.000,15915.000,14099.000
13868.000,15821.000,14044.000
13910.000,15932.000,14095.000
13881.000,15840.000,14192.000
13995.000,15967.000,14247.000
14057.000,15994.000,14163.000
13978.000,16059.000,14205.000
13916.000,15944.000,14138.000
13863.000,15883.000,14404.000
13901.000,15983.000,14200.000
14163.000,16167.000,14325.000
13998.000,16153.000,14383.000
14131.000,16071.000,14288.000
13981.000,16073.000,14355.000
14092.000,16040.000,14279.000
13981.000,16177.000,14318.000
13980.000,16116.000,14315.000
14040.000,16063.000,14319.000
14068.000,16048.000,14405.000
14130.000,16277.000,14369.000
14223.000,16182.000,14500.000
14076.000,16110.000,14434.000
14163.000,15977.000,14283.000
13963.000,16010.000,14404.000
14077.000,15994.000,14210.000
14040.000,15909.000,14331.000
14029.000,16223.000,14464.000
14177.000,16189.000,14354.000
14090.000,16294.000,14428.000
14167.000,16056.000,14294.000
14117.000,16127.000,14327.000
14001.000,15925.000,14441.000
14100.000,16119.000,14541.000
13989.000,16179.000,14354.000
14079.000,16023.000,14290.000
13981.000,15976.000,14235.000
14046.000,15834.000,14291.000
13990.000,16066.000,14268.000
13948.000,16186.000,14403.000
13994.000,16049.000,14285.000
14005.000,16005.000,14313.000
13989.000,16074.000,14256.000
14011.000,16106.000,14347.000
14095.000,15989.000,14240.000
13845.000,15971.000,14296.000
14205.000,16171.000,14454.000
14084.000,16034.000,14423.000
14115.000,16245.000,14286.000
14127.000,16099.000,14325.000
14227.000,16022.000,14490.000
14209.000,16095.000,14263.000
14123.000,16063.000,14291.000
14059.000,16123.000,14298.000
14111.000,16215.000,14318.000
14128.000,16116.000,14368.000
14120.000,16294.000,14498.000
14110.000,16021.000,14381.000
14135.000,16117.000,14497.000
14219.000,16034.000,14486.000
14127.000,15983.000,14441.000
14054.000,16122.000,14519.000
14143.000,16052.000,14413.000
14128.000,16064.000,14289.000
13936.000,16002.000,14323.000
14040.000,15851.000,14194.000
14060.000,15927.000,14357.000
14052.000,16174.000,14252.000
14162.000,16022.000,14307.000
14096.000,16033.000,14251.000
14179.000,16008.000,14313.000
14227.000,16214.000,14424.000
14105.000,16016.000,14404.000
14075.000,16023.000,14341.000
14237.000,16353.000,14481.000
14014.000,16093.000,14340.000
13956.000,16111.000,14296.000
14297.000,16084.000,14351.000
14176.000,16010.000,14449.000
13936.000,16073.000,14306.000
14075.000,16034.000,14343.000
14166.000,15958.000,14557.000
14144.000,16050.000,14487.000
14041.000,16073.000,14407.000
14062.000,16102.000,14480.000
14168.000,16132.000,14427.000
14036.000,16167.000,14481.000
14083.000,16148.000,14443.000
14179.000,16133.000,14556.000
14145.000,16164.000,14460.000
13971.000,15907.000,14321.000
14009.000,15941.000,14233.000
14029.000,16031.000,14360.000
13915.000,16111.000,14382.000
14062.000,16053.000,14259.000
14078.000,16082.000,14379.000
14083.000,16032.000,14354.000
14062.000,15916.000,14186.000
14033.000,15964.000,14220.000
14030.000,15923.000,14146.000
13987.000,15960.000,14291.000
14075.000,15955.000,14367.000
14030.000,15999.000,14345.000
14038.000,15893.000,14220.000
14041.000,15911.000,14173.000
13990.000,16064.000,14279.000
13943.000,15977.000,14152.000
13998.000,15995.000,14093.000
13934.000,16018.000,14316.000
13750.000,15896.000,14191.000
13944.000,15816.000,14042.000
13971.000,15907.000,13976.000
13837.000,15868.000,14083.000
13771.000,15827.000,14123.000
13849.000,15825.000,14169.000
13979.000,15863.000,14236.000
13913.000,15873.000,14223.000
14021.000,15961.000,14203.000
13711.000,15944.000,14127.000
14028.000,15942.000,14176.000
13936.000,15992.000,14252.000
13788.000,16127.000,14222.000
13874.000,15952.000,14286.000
13854.000,15894.000,14246.000
13986.000,15887.000,14133.000
13901.000,15794.000,14033.000
13907.000,15762.000,14094.000
13875.000,16013.000,14276.000
14133.000,15995.000,14301.000
13903.000,15842.000,14114.000
13871.000,15754.000,14134.000
13879.000,16001.000,14247.000
13903.000,15980.000,14293.000
14119.000,16109.000,14237.000
14019.000,15960.000,14371.000
14012.000,15854.000,14196.000
13938.000,15883.000,14196.000
13974.000,15907.000,14168.000
13936.000,15916.000,14191.000
13941.000,15930.000,14218.000
14028.000,15972.000,14301.000
14146.000,16066.000,14218.000
14022.000,16005.000,14416.000
14005.000,15888.000,14241.000
14109.000,15865.000,14369.000
14145.000,16115.000,14407.000
13967.000,15912.000,14343.000
14065.000,16132.000,14423.000
14101.000,16206.000,14337.000
14131.000,16049.000,14305.000
13994.000,16090.000,14294.000
14124.000,16028.000,14336.000
14179.000,16174.000,14406.000
14198.000,16115.000,14379.000
14149.000,16149.000,14427.000
14282.000,16197.000,14596.000
14166.000,16419.000,14504.000
14314.000,16191.000,14643.000
14213.000,16299.000,14469.000
14288.000,16423.000,14592.000
14287.000,16333.000,14543.000
14138.000,16152.000,14463.000
14196.000,16077.000,14442.000
14058.000,16154.000,14431.000
14182.000,16184.000,14560.000
14164.000,16379.000,14463.000
14220.000,16262.000,14429.000
14145.000,16272.000,14462.000
14267.000,16185.000,14442.000
14162.000,16250.000,14545.000
14030.000,16171.000,14463.000
14115.000,16059.000,14307.000
13995.000,16177.000,14382.000
14022.000,16083.000,14441.000
14189.000,16039.000,14360.000
14209.000,16156.000,14303.000
14162.000,16055.000,14396.000
14155.000,16263.000,14357.000
14070.000,15996.000,14281.000
14049.000,16092.000,14259.000
14183.000,15998.000,14423.000
14048.000,16157.000,14412.000
14016.000,15982.000,14248.000
14149.000,16009.000,14451.000
14071.000,16013.000,14299.000
14024.000,16076.000,14300.000
13999.000,15977.000,14255.000
14048.000,16130.000,14269.000
13928.000,15993.000,14201.000
13953.000,15933.000,14091.000
14068.000,15876.000,14298.000
13977.000,15777.000,14255.000
13992.000,15960.000,14218.000
13969.000,15885.000,14270.000
13844.000,15857.000,14070.000
13956.000,15870.000,14167.000
13947.000,16050.000,14167.000
13850.000,15943.000,14335.000
13944.000,16032.000,14220.000
14039.000,15888.000,14313.000
13826.000,15903.000,14118.000
13866.000,15827.000,14103.000
13935.000,15786.000,14067.000
13901.000,15966.000,14248.000
13976.000,15923.000,14156.000
13847.000,15850.000,14228.000
13967.000,15782.000,13957.000
13883.000,15715.000,14232.000
13973.000,15981.000,14173.000
13880.000,15855.000,14242.000
13965.000,15829.000,14201.000
13882.000,15922.000,14144.000
13871.000,15739.000,14101.000
13869.000,15911.000,14113.000
13990.000,16031.000,14305.000
13804.000,15950.000,14271.000
13983.000,15861.000,14167.000
13786.000,15844.000,13991.000
13823.000,15707.000,14052.000
13803.000,15712.000,14049.000
13796.000,15824.000,14063.000
13769.000,15819.000,14050.000
13763.000,15750.000,14118.000
13912.000,15961.000,14265.000
13990.000,16050.000,14305.000
13982.000,15809.000,14276.000
14060.000,16074.000,14303.000
14167.000,16136.000,14319.000
14093.000,16071.000,14313.000
13949.000,16045.000,14305.000
14045.000,15914.000,14287.000
14030.000,15789.000,14202.000
13950.000,15851.000,14237.000
14079.000,16001.000,14231.000
14026.000,15989.000,14418.000
13955.000,15984.000,14289.000
13878.000,15875.000,14243.000
13923.000,15940.000,14264.000
14023.000,15892.000,14311.000
14047.000,16085.000,14333.000
14039.000,16022.000,14294.000
14070.000,15955.000,14323.000
14082.000,16075.000,14318.000
14108.000,16178.000,14381.000
13961.000,16173.000,14251.000
14095.000,16109.000,14268.000
14047.000,16116.000,14336.000
14081.000,15999.000,14361.000
14005.000,16133.000,14350.000
13865.000,15936.000,14225.000
13981.000,15750.000,14234.000
13864.000,15918.000,14142.000
13882.000,15854.000,14053.000
13861.000,15919.000,14161.000
13902.000,15824.000,14372.000
13947.000,15854.000,14216.000
13884.000,15781.000,14032.000
13892.000,15770.000,14190.000
13796.000,15657.000,14020.000
13687.000,15829.000,14016.000
13955.000,15831.000,14211.000
13838.000,15890.000,14206.000
13942.000,15854.000,14058.000
13711.000,15828.000,13917.000
13746.000,15602.000,13959.000
13691.000,15697.000,13953.000
13667.000,15562.000,14012.000
13797.000,15592.000,13994.000
13607.000,15601.000,13869.000
13584.000,15544.000,13910.000
13524.000,15492.000,13851.000
13401.000,15381.000,13737.000
13528.000,15394.000,13773.000
13576.000,15416.000,13828.000
13654.000,15660.000,13947.000
13653.000,15571.000,13864.000
13591.000,15495.000,13826.000
13610.000,15680.000,13799.000
13666.000,15489.000,14028.000
13544.000,15493.000,13800.000
13621.000,15361.000,13824.000
13506.000,15375.000,13861.000
13531.000,15578.000,13870.000
13462.000,15457.000,13833.000
13499.000,15358.000,13711.000
13497.000,15463.000,13811.000
13616.000,15279.000,13735.000
13582.000,15302.000,13681.000
13442.000,15396.000,13754.000
13324.000,15206.000,13647.000
13281.000,15320.000,13677.000
13419.000,15409.000,13622.000
13375.000,15295.000,13690.000
13478.000,15515.000,13799.000
13389.000,15378.000,13782.000
13363.000,15387.000,13698.000
13348.000,15346.000,13712.000
13420.000,15317.000,13681.000
13237.000,15278.000,13597.000
13336.000,15266.000,13666.000
13457.000,15407.000,13597.000
13434.000,15404.000,13764.000
13546.000,15320.000,13777.000
13632.000,15430.000,13713.000
13498.000,15507.000,13807.000
13564.000,15437.000,13884.000
13590.000,15396.000,13863.000
13561.000,15447.000,13828.000
13506.000,15302.000,13704.000
13350.000,15254.000,13729.000
13309.000,15186.000,13794.000
13303.000,15175.000,13512.000
13257.000,15094.000,13354.000
13218.000,15119.000,13612.000
13275.000,15008.000,13558.000
13253.000,15150.000,13589.000
13194.000,15057.000,13525.000
13109.000,15117.000,13300.000
13020.000,14950.000,13385.000
13147.000,15040.000,13403.000
12970.000,14860.000,13441.000
13132.000,15042.000,13356.000
13136.000,14865.000,13501.000
13109.000,14900.000,13305.000
13202.000,15050.000,13515.000
13137.000,15072.000,13396.000
13107.000,15035.000,13326.000
13174.000,15066.000,13395.000
13143.000,14972.000,13415.000
13097.000,14994.000,13472.000
13219.000,14927.000,13480.000
13193.000,14900.000,13384.000
13119.000,15093.000,13507.000
13089.000,14884.000,13368.000
12995.000,14833.000,13183.000
13021.000,14912.000,13303.000
12961.000,14801.000,13278.000
13008.000,14786.000,13335.000
13117.000,14928.000,13368.000
12994.000,14899.000,13308.000
12943.000,14741.000,13203.000
12756.000,14646.000,13033.000
12791.000,14569.000,13044.000
12798.000,14644.000,13166.000
12939.000,14560.000,13100.000
12866.000,14641.000,13034.000
12768.000,14639.000,12988.000
12761.000,14570.000,12979.000
12770.000,14502.000,12972.000
12738.000,14608.000,12993.000
12688.000,14549.000,12943.000
12704.000,14587.000,12973.000
12587.000,14454.000,12960.000
12726.000,14573.000,12930.000
12716.000,14374.000,12895.000
12673.000,14464.000,13034.000
12658.000,14545.000,12874.000
12513.000,14479.000,12842.000
12667.000,14533.000,12986.000
12680.000,14450.000,12932.000
12563.000,14388.000,12886.000
12679.000,14379.000,12691.000
12662.000,14459.000,12899.000
12555.000,14412.000,12918.000
12634.000,14377.000,12906.000
12572.000,14376.000,12905.000
12689.000,14371.000,12891.000
12732.000,14477.000,12971.000
12537.000,14295.000,12739.000
12517.000,14348.000,12777.000
12480.000,14369.000,12812.000
12482.000,14333.000,12868.000
12533.000,14328.000,12683.000
12441.000,14105.000,12627.000
12214.000,14207.000,12685.000
12328.000,14181.000,12630.000
12357.000,14121.000,12628.000
12390.000,14018.000,12566.000
12275.000,14160.000,12664.000
12319.000,14043.000,12532.000
12419.000,14026.000,12573.000
12091.000,13999.000,12451.000
12351.000,14010.000,12402.000
12170.000,13957.000,12450.000
12183.000,13845.000,12443.000
12286.000,13910.000,12616.000
12147.000,14071.000,12431.000
12213.000,13988.000,12363.000
12320.000,14041.000,12518.000
12153.000,14012.000,12513.000
12257.000,13997.000,12491.000
12090.000,13940.000,12498.000
12157.000,13990.000,12416.000
12075.000,13799.000,12436.000
12199.000,13807.000,12433.000
12198.000,13743.000,12381.000
12140.000,13749.000,12264.000
12012.000,13592.000,12219.000
11979.000,13720.000,12220.000
11924.000,13658.000,12165.000
11999.000,13695.000,12177.000
12015.000,13673.000,12207.000
11869.000,13609.000,12203.000
11762.000,13564.000,12108.000
11840.000,13436.000,11928.000
11783.000,13477.000,11928.000
11614.000,13417.000,11834.000
11810.000,13436.000,12014.000
11612.000,13386.000,11989.000
11663.000,13322.000,11867.000
11720.000,13434.000,12030.000
11741.000,13344.000,12001.000
11590.000,13310.000,12075.000
11606.000,13299.000,11958.000
11638.000,13354.000,11777.000
11585.000,13380.000,11887.000
11715.000,13223.000,11919.000
11759.000,13376.000,11984.000
11665.000,13263.000,11922.000
11693.000,13362.000,12041.000
11529.000,13110.000,11886.000
11526.000,13043.000,11863.000
11552.000,13212.000,11740.000
11484.000,13034.000,11714.000
11551.000,13173.000,11698.000
11486.000,13160.000,11762.000
11373.000,13065.000,11673.000
11408.000,13098.000,11671.000
11365.000,13106.000,11696.000
11298.000,12971.000,11561.000
11249.000,12850.000,11554.000
11361.000,12932.000,11498.000
11229.000,12774.000,11397.000
11073.000,12768.000,11475.000
11170.000,12751.000,11385.000
11111.000,12846.000,11411.000
11119.000,12533.000,11306.000
11061.000,12631.000,11260.000
10922.000,12467.000,11196.000
11056.000,12533.000,11242.000
10918.000,12546.000,11270.000
10897.000,12502.000,11153.000
10864.000,12611.000,11210.000
10984.000,12571.000,11241.000
10817.000,12521.000,11145.000
11034.000,12530.000,11233.000
10952.000,12521.000,11330.000
10992.000,12592.000,11351.000
10929.000,12559.000,11301.000
11074.000,12590.000,11132.000
10979.000,12587.000,11171.000
10918.000,12451.000,11203.000
10868.000,12427.000,11012.000
10947.000,12474.000,11185.000
10846.000,12438.000,11029.000
10758.000,12245.000,11112.000
10851.000,12353.000,10993.000
10760.000,12338.000,11143.000
10680.000,12279.000,11018.000
10750.000,12284.000,10951.000
10633.000,12259.000,10879.000
10663.000,12050.000,10862.000
10568.000,12060.000,10853.000
10560.000,12161.000,10869.000
10507.000,12013.000,10736.000
10418.000,11948.000,10734.000
10304.000,11948.000,10783.000
10480.000,11912.000,10683.000
10503.000,11886.000,10729.000
10559.000,11998.000,10787.000
10526.000,12118.000,10898.000
10541.000,12075.000,10681.000
10497.000,12041.000,10783.000
10618.000,12024.000,10839.000
10555.000,11909.000,10868.000
10588.000,11979.000,10744.000
10607.000,12021.000,10920.000
10454.000,12015.000,10722.000
10533.000,11869.000,10681.000
10440.000,11843.000,10614.000
10441.000,11806.000,10604.000
10368.000,11936.000,10627.000
10356.000,11887.000,10624.000
10303.000,11940.000,10631.000
10414.000,11760.000,10572.000
10355.000,11792.000,10599.000
10268.000,11749.000,10591.000
10346.000,11762.000,10579.000
10432.000,11840.000,10723.000
10428.000,11932.000,10739.000
10466.000,11880.000,10644.000
10474.000,11943.000,10649.000
10560.000,11927.000,10752.000
10377.000,11957.000,10694.000
10380.000,11902.000,10719.000
10332.000,11768.000,10637.000
10302.000,11705.000,10627.000
10281.000,11747.000,10644.000
10307.000,11654.000,10552.000
10222.000,11666.000,10565.000
10247.000,11684.000,10533.000
10176.000,11623.000,10449.000
10103.000,11637.000,10482.000
10103.000,11539.000,10342.000
10133.000,11487.000,10373.000
10143.000,11483.000,10335.000
10109.000,11518.000,10447.000
10169.000,11595.000,10468.000
10037.000,11635.000,10386.000
10209.000,11634.000,10518.000
10042.000,11620.000,10430.000
10135.000,11753.000,10510.000
10144.000,11674.000,10425.000
10198.000,11664.000,10445.000
10225.000,11452.000,10461.000
10133.000,11676.000,10450.000
9980.000,11597.000,10421.000
10140.000,11478.000,10350.000
10031.000,11341.000,10252.000
9984.000,11403.000,10196.000
9949.000,11349.000,10391.000
10076.000,11369.000,10342.000
10103.000,11573.000,10374.000
10080.000,11541.000,10343.000
10152.000,11553.000,10461.000
10196.000,11637.000,10310.000
10147.000,11574.000,10401.000
10258.000,11482.000,10518.000
10264.000,11645.000,10395.000
10198.000,11585.000,10449.000
10116.000,11433.000,10381.000
10102.000,11480.000,10365.000
10061.000,11452.000,10116.000
9958.000,11343.000,10189.000
10020.000,11490.000,10195.000
10040.000,11356.000,10184.000
9972.000,11357.000,10191.000
9967.000,11434.000,10293.000
10017.000,11487.000,10294.000
10092.000,11685.000,10394.000
10097.000,11485.000,10428.000
10129.000,11367.000,10280.000
10103.000,11328.000,10256.000
10093.000,11506.000,10365.000
10179.000,11417.000,10360.000
10063.000,11471.000,10291.000
10040.000,11276.000,10101.000
9861.000,11245.000,10186.000
9973.000,11225.000,10164.000
9827.000,11149.000,10054.000
9830.000,11250.000,10109.000
9972.000,11198.000,10120.000
9954.000,11312.000,10136.000
10041.000,11270.000,10241.000
9945.000,11373.000,10100.000
9916.000,11336.000,10161.000
10124.000,11434.000,10205.000
10112.000,11491.000,10210.000
10170.000,11440.000,10273.000
10085.000,11435.000,10265.000
10087.000,11512.000,10349.000
10148.000,11512.000,10237.000
10054.000,11524.000,10189.000
9898.000,11268.000,10166.000
9948.000,11357.000,10113.000
9838.000,11193.000,10088.000
9843.000,11239.000,10046.000
9839.000,11233.000,10112.000
9817.000,11128.000,10067.000
9783.000,11198.000,10087.000
9852.000,11075.000,10116.000
9822.000,11228.000,10040.000
9801.000,11257.000,10091.000
9897.000,11122.000,10088.000
9818.000,11335.000,10118.000
9907.000,11283.000,10267.000
10020.000,11349.000,10289.000
9961.000,11350.000,10136.000
10060.000,11445.000,10274.000
10043.000,11465.000,10282.000
9977.000,11259.000,10197.000
10097.000,11313.000,10176.000
9983.000,11332.000,10224.000
9984.000,11287.000,10150.000
9863.000,11243.000,10099.000
9904.000,11208.000,10093.000
9889.000,11280.000,10129.000
9947.000,11221.000,10165.000
9807.000,11226.000,10088.000
9840.000,11305.000,10028.000
9850.000,11145.000,10135.000
9961.000,11062.000,10023.000
9868.000,11098.000,10117.000
10035.000,11287.000,10166.000
10019.000,11327.000,10242.000
9934.000,11356.000,10236.000
10035.000,11306.000,10263.000
10005.000,11460.000,10260.000
10112.000,11300.000,10230.000
9857.000,11324.000,10211.000
10017.000,11334.000,10268.000
9990.000,11395.000,10269.000
10038.000,11395.000,10175.000
9962.000,11214.000,10206.000
9951.000,11218.000,10272.000
9872.000,11206.000,10207.000
9952.000,11318.000,10111.000
9838.000,11265.000,10148.000
9860.000,11199.000,10064.000
9849.000,11212.000,10029.000
9752.000,11122.000,10073.000
9788.000,11070.000,9999.000
9768.000,11061.000,9855.000
9798.000,11043.000,10037.000
9652.000,11043.000,9848.000
9680.000,10950.000,10013.000
9667.000,10963.000,9907.000
9754.000,10994.000,9962.000
9765.000,11002.000,9776.000
9680.000,11010.000,9947.000
9766.000,11084.000,10037.000
9752.000,11217.000,9958.000
9735.000,11125.000,10071.000
9819.000,11023.000,10146.000
9809.000,11099.000,10085.000
9728.000,11117.000,9971.000
9748.000,11154.000,9944.000
9836.000,11153.000,10019.000
9793.000,11114.000,9974.000
9783.000,11153.000,9898.000
9668.000,11008.000,9877.000
9610.000,10812.000,9883.000
9616.000,10868.000,9763.000
9522.000,10842.000,9845.000
9477.000,10876.000,9696.000
9533.000,10698.000,9691.000
9383.000,10738.000,9600.000
9492.000,10787.000,9591.000
9392.000,10671.000,9691.000
9388.000,10710.000,9593.000
9378.000,10686.000,9619.000
9361.000,10576.000,9613.000
9310.000,10589.000,9567.000
9468.000,10651.000,9537.000
9358.000,10630.000,9564.000
9377.000,10561.000,9596.000
9347.000,10682.000,9628.000
9301.000,10544.000,9528.000
9298.000,10507.000,9579.000
9314.000,10672.000,9520.000
9479.000,10636.000,9527.000
9384.000,10545.000,9542.000
9270.000,10507.000,9391.000
9287.000,10510.000,9483.000
9322.000,10482.000,9528.000
9342.000,10456.000,9531.000
9239.000,10519.000,9387.000
9227.000,10509.000,9474.000
9176.000,10582.000,9471.000
9187.000,10414.000,9399.000
9141.000,10571.000,9379.000
9103.000,10395.000,9368.000
9119.000,10416.000,9333.000
9188.000,10350.000,9366.000
9120.000,10418.000,9312.000
9148.000,10302.000,9243.000
9112.000,10370.000,9338.000
8996.000,10261.000,9252.000
9067.000,10340.000,9227.000
9143.000,10242.000,9160.000
9057.000,10179.000,9242.000
8943.000,10302.000,9195.000
8842.000,10218.000,9217.000
8887.000,10132.000,9164.000
8881.000,10145.000,9101.000
8986.000,10115.000,9034.000
8787.000,10086.000,9070.000
8757.000,10041.000,9027.000
8760.000,10035.000,8944.000
8780.000,10023.000,9053.000
8814.000,9995.000,9149.000
8846.000,10054.000,9058.000
8831.000,9987.000,8985.000
8978.000,10146.000,9186.000
8862.000,10104.000,9093.000
8907.000,10178.000,9107.000
8966.000,10103.000,9089.000
8843.000,10117.000,9088.000
8964.000,10037.000,9141.000
8941.000,10087.000,9109.000
8871.000,9995.000,9084.000
8777.000,10041.000,8928.000
8748.000,10041.000,9050.000
8783.000,10019.000,9049.000
8897.000,10000.000,9117.000
8867.000,10037.000,8977.000
8754.000,9881.000,8916.000
8722.000,9977.000,9018.000
8780.000,9905.000,8980.000
8677.000,9940.000,8954.000
8733.000,9754.000,8884.000
8715.000,9828.000,8831.000
8592.000,9781.000,8852.000
8719.000,9901.000,8809.000
8580.000,9812.000,8871.000
8680.000,9804.000,8762.000
8608.000,9683.000,8785.000
8544.000,9652.000,8800.000
8550.000,9688.000,8753.000
8446.000,9707.000,8690.000
8475.000,9594.000,8582.000
8421.000,9560.000,8655.000
8298.000,9509.000,8564.000
8427.000,9481.000,8608.000
8323.000,9533.000,8568.000
8332.000,9623.000,8593.000
8397.000,9590.000,8598.000
8411.000,9477.000,8669.000
8535.000,9559.000,8651.000
8529.000,9582.000,8612.000
8443.000,9730.000,8709.000
8440.000,9627.000,8660.000
8595.000,9653.000,8628.000
8548.000,9751.000,8729.000
8657.000,9697.000,8750.000
8647.000,9745.000,8876.000
8693.000,9702.000,8792.000
8588.000,9576.000,8751.000
8651.000,9805.000,8806.000
8554.000,9723.000,8697.000
8559.000,9696.000,8661.000
8691.000,9809.000,8822.000
8608.000,9675.000,8817.000
8598.000,9647.000,8669.000
8520.000,9555.000,8753.000
8509.000,9511.000,8584.000
8451.000,9504.000,8661.000
8426.000,9573.000,8662.000
8375.000,9460.000,8633.000
8337.000,9521.000,8637.000
8433.000,9445.000,8615.000
8354.000,9439.000,8521.000
8297.000,9344.000,8427.000
8228.000,9394.000,8372.000
8204.000,9224.000,8299.000
8233.000,9227.000,8359.000
8182.000,9237.000,8394.000
8114.000,9260.000,8426.000
8093.000,9300.000,8248.000
8132.000,9162.000,8258.000
7972.000,9002.000,8238.000
8083.000,9053.000,8174.000
7976.000,8992.000,8180.000
7942.000,8940.000,8059.000
7797.000,8875.000,8077.000
7897.000,8898.000,8095.000
7772.000,8836.000,8050.000
7827.000,8873.000,8010.000
7783.000,8886.000,8062.000
7783.000,8827.000,8026.000
7666.000,8711.000,7971.000
7678.000,8636.000,7840.000
7657.000,8622.000,7855.000
7656.000,8692.000,7745.000
7680.000,8633.000,7843.000
7675.000,8631.000,7873.000
7649.000,8659.000,7856.000
7555.000,8603.000,7815.000
7598.000,8647.000,7871.000
7594.000,8655.000,7805.000
7571.000,8618.000,7829.000
7676.000,8539.000,7819.000
7528.000,8519.000,7683.000
7588.000,8581.000,7766.000
7502.000,8520.000,7715.000
7447.000,8458.000,7729.000
7438.000,8482.000,7648.000
7459.000,8431.000,7651.000
7411.000,8332.000,7560.000
7437.000,8290.000,7499.000
7275.000,8281.000,7410.000
7353.000,8274.000,7449.000
7286.000,8245.000,7382.000
7175.000,8182.000,7410.000
7219.000,8254.000,7361.000
7216.000,8114.000,7347.000
7235.000,8103.000,7409.000
7095.000,8140.000,7346.000
7167.000,8142.000,7207.000
7078.000,8119.000,7328.000
7080.000,8020.000,7261.000
7025.000,8025.000,7429.000
7058.000,7838.000,9937.000
7104.000,7984.000,7158.000
7110.000,8037.000,7212.000
6997.000,7914.000,7136.000
6959.000,7968.000,7192.000
6895.000,7884.000,7105.000
6921.000,7819.000,7081.000
6826.000,7751.000,6973.000
6868.000,7769.000,7161.000
6812.000,7738.000,7083.000
6941.000,7717.000,7077.000
6870.000,7700.000,7032.000
6877.000,7783.000,7029.000
6824.000,7727.000,7012.000
6893.000,7728.000,6940.000
6848.000,7718.000,6993.000
6643.000,7637.000,7003.000
6872.000,7744.000,7033.000
6817.000,7718.000,6975.000
6845.000,7715.000,7006.000
6795.000,7672.000,7005.000
6793.000,7594.000,7049.000
6783.000,7663.000,6955.000
6778.000,7732.000,6946.000
6770.000,7637.000,6841.000
6724.000,7677.000,6889.000
6693.000,7570.000,6899.000
6639.000,7569.000,6933.000
6641.000,7538.000,6828.000
6626.000,7436.000,6790.000
6685.000,7388.000,6784.000
6593.000,7506.000,6689.000
6548.000,7484.000,6730.000
6539.000,7425.000,6787.000
6523.000,7353.000,6713.000
6443.000,7361.000,6675.000
6396.000,7315.000,6549.000
6381.000,7335.000,6578.000
6319.000,7136.000,6504.000
6312.000,7159.000,6479.000
6317.000,7082.000,6424.000
6268.000,7139.000,6535.000
6329.000,7092.000,6516.000
6224.000,7055.000,6399.000
6133.000,6924.000,6402.000
6036.000,6938.000,6315.000
6085.000,6864.000,6255.000
6071.000,6859.000,6346.000
5979.000,6877.000,6231.000
6027.000,6772.000,6244.000
5950.000,6837.000,6199.000
5966.000,6843.000,6172.000
5950.000,6716.000,6161.000
5923.000,6667.000,6077.000
5832.000,6628.000,6117.000
5950.000,6621.000,6071.000
5846.000,6624.000,6137.000
5903.000,6556.000,6135.000
5830.000,6639.000,6103.000
5926.000,6573.000,6007.000
5847.000,6608.000,6013.000
5879.000,6631.000,5978.000
5845.000,6611.000,6006.000
5831.000,6543.000,6005.000
5780.000,6556.000,6018.000
5716.000,6523.000,5946.000
5733.000,6459.000,5905.000
5734.000,6415.000,5942.000
5767.000,6455.000,5830.000
5755.000,6490.000,5918.000
5660.000,6403.000,5917.000
5681.000,6317.000,5870.000
5715.000,6415.000,5872.000
5685.000,6429.000,5852.000
5611.000,6350.000,5823.000
5632.000,6337.000,5774.000
5542.000,6228.000,5667.000
5531.000,6187.000,5642.000
5507.000,6222.000,5718.000
5498.000,6147.000,5667.000
5544.000,6116.000,5625.000
5460.000,6163.000,5633.000
5382.000,6037.000,5522.000
5400.000,6027.000,5532.000
5395.000,5999.000,5412.000
5351.000,5972.000,5504.000
5353.000,5966.000,5478.000
5341.000,5978.000,5366.000
5297.000,5922.000,5424.000
5268.000,5897.000,5350.000
5210.000,5944.000,5375.000
5223.000,5890.000,5426.000
5220.000,5914.000,5360.000
5264.000,5961.000,5319.000
5210.000,5855.000,5311.000
5240.000,5850.000,5231.000
5145.000,5836.000,5269.000
5153.000,5757.000,5223.000
5203.000,5815.000,5248.000
5195.000,5799.000,5229.000
5190.000,5736.000,5188.000
5124.000,5810.000,5242.000
5080.000,5749.000,5265.000
5107.000,5756.000,5211.000
5164.000,5842.000,5200.000
5132.000,5738.000,5170.000
5078.000,5771.000,5135.000
5063.000,5636.000,5176.000
5028.000,5684.000,5066.000
5090.000,5683.000,5088.000
5048.000,5626.000,5120.000
5033.000,5583.000,5171.000
5036.000,5640.000,5123.000
5015.000,5624.000,5096.000
4979.000,5562.000,5154.000
4974.000,5560.000,5077.000
4967.000,5528.000,5074.000
4907.000,5516.000,5016.000
4854.000,5427.000,5000.000
4827.000,5438.000,4900.000
4837.000,5417.000,4944.000
4806.000,5380.000,4928.000
4744.000,5387.000,4877.000
4772.000,5319.000,4815.000
4740.000,5290.000,4895.000
4655.000,5252.000,4822.000
4727.000,5278.000,4770.000
4671.000,5186.000,4797.000
4648.000,5221.000,4736.000
4580.000,5084.000,4716.000
4616.000,5110.000,4794.000
4583.000,5062.000,4702.000
4466.000,5082.000,4692.000
4525.000,5042.000,4662.000
4571.000,5029.000,4633.000
4562.000,4988.000,4635.000
4423.000,5049.000,4573.000
4461.000,4955.000,4578.000
4500.000,4966.000,4583.000
4406.000,4975.000,4573.000
4414.000,4947.000,4505.000
4407.000,5002.000,4589.000
4384.000,4914.000,4485.000
4403.000,4899.000,4502.000
4419.000,4902.000,4511.000
4439.000,4904.000,4523.000
4423.000,4941.000,4505.000
4420.000,4871.000,4581.000
4430.000,4927.000,4581.000
4500.000,4998.000,4530.000
4459.000,4890.000,4624.000
4414.000,4932.000,4554.000
4493.000,4958.000,4535.000
4498.000,4954.000,4588.000
4487.000,4996.000,4603.000
4437.000,4859.000,4591.000
4477.000,4973.000,4559.000
4505.000,4935.000,4590.000
4363.000,4858.000,4530.000
4372.000,4888.000,4447.000
4363.000,4847.000,4537.000
4391.000,4930.000,4538.000
4407.000,4883.000,4528.000
4410.000,4900.000,4509.000
4358.000,4780.000,4579.000
4374.000,4841.000,4469.000
4365.000,4785.000,4447.000
4336.000,4754.000,4422.000
4296.000,4715.000,4368.000
4284.000,4751.000,4387.000
4328.000,4728.000,4432.000
4290.000,4832.000,4416.000
4371.000,4820.000,4453.000
4403.000,4842.000,4461.000
4353.000,4818.000,4447.000
4370.000,4762.000,4472.000
4366.000,4818.000,4455.000
4343.000,4860.000,4494.000
4449.000,4825.000,4526.000
4463.000,4926.000,4521.000
4419.000,4890.000,4524.000
4399.000,4881.000,4515.000
4457.000,4867.000,4507.000
4418.000,4856.000,4461.000
4417.000,4899.000,4567.000
4397.000,4940.000,4512.000
4390.000,4890.000,4510.000
4384.000,4861.000,4501.000
4365.000,4817.000,4489.000
4345.000,4905.000,4504.000
4336.000,4790.000,4473.000
4394.000,4858.000,4423.000
4385.000,4844.000,4442.000
4399.000,4786.000,4426.000
4273.000,4755.000,4400.000
4330.000,4759.000,4396.000
4284.000,4723.000,4312.000
4242.000,4731.000,4379.000
4274.000,4753.000,4408.000
4274.000,4750.000,4410.000
4216.000,4678.000,4420.000
4257.000,4665.000,4359.000
4208.000,4702.000,4299.000
4229.000,4669.000,4291.000
4176.000,4690.000,4305.000
4249.000,4718.000,4312.000
4207.000,4715.000,4312.000
4228.000,4683.000,4308.000
4255.000,4732.000,4313.000
4255.000,4687.000,4350.000
4236.000,4735.000,4407.000
4307.000,4734.000,4390.000
4299.000,4761.000,4359.000
4237.000,4725.000,4338.000
4356.000,4745.000,4454.000
4270.000,4763.000,4439.000
4292.000,4775.000,4485.000
4351.000,4837.000,4422.000
4317.000,4788.000,4439.000
4328.000,4802.000,4421.000
4291.000,4844.000,4393.000
4285.000,4801.000,4437.000
4267.000,4844.000,4430.000
4307.000,4778.000,4397.000
4320.000,4887.000,4392.000
4370.000,4819.000,4401.000
4341.000,4814.000,4433.000
4336.000,4802.000,4451.000
4313.000,4867.000,4436.000
4333.000,4817.000,4434.000
4330.000,4789.000,4477.000
4241.000,4775.000,4427.000
4270.000,4731.000,4455.000
4327.000,4813.000,4417.000
4234.000,4777.000,4411.000
4252.000,4715.000,4437.000
4200.000,4727.000,4395.000
4243.000,4723.000,4343.000
4196.000,4706.000,4323.000
4190.000,4659.000,4301.000
4184.000,4733.000,4328.000
4237.000,4711.000,4356.000
4253.000,4663.000,4329.000
4181.000,4731.000,4345.000
4214.000,4675.000,4285.000
4228.000,4696.000,4337.000
4144.000,4786.000,4246.000
4159.000,4592.000,4284.000
4163.000,4592.000,4277.000
4178.000,4648.000,4376.000
4183.000,4693.000,4314.000
4210.000,4635.000,4363.000
4200.000,4720.000,4302.000
4181.000,4682.000,4278.000
4230.000,4735.000,4372.000
4178.000,4770.000,4378.000
4248.000,4739.000,4355.000
4243.000,4728.000,4400.000
4311.000,4766.000,4396.000
4300.000,4818.000,4380.000
4282.000,4771.000,4412.000
4298.000,4777.000,4458.000
4313.000,4804.000,4461.000
4293.000,4885.000,4443.000
4291.000,4771.000,4419.000
4327.000,4829.000,4459.000
4315.000,4767.000,4444.000
4302.000,4775.000,4402.000
4297.000,4790.000,4338.000
4315.000,4777.000,4424.000
4306.000,4810.000,4436.000
4321.000,4826.000,4425.000
4283.000,4839.000,4424.000
4234.000,4730.000,4397.000
4227.000,4758.000,4462.000
4320.000,4733.000,4293.000
4220.000,4730.000,4320.000
4246.000,4688.000,4327.000
4239.000,4772.000,4307.000
4222.000,4707.000,4310.000
4196.000,4707.000,4339.000
4128.000,4633.000,4274.000
4059.000,4547.000,4289.000
4206.000,4594.000,4238.000
4146.000,4615.000,4269.000
4204.000,4576.000,4239.000
4158.000,4670.000,4287.000
4157.000,4617.000,4210.000
4131.000,4596.000,4137.000
4163.000,4627.000,4256.000
4171.000,4645.000,4284.000
4259.000,4688.000,4309.000
4226.000,4665.000,4264.000
4215.000,4683.000,4283.000
4267.000,4745.000,4384.000
4238.000,4706.000,4389.000
4271.000,4719.000,4377.000
4242.000,4716.000,4355.000
4172.000,4691.000,4278.000
4248.000,4748.000,4378.000
4273.000,4741.000,4386.000
4274.000,4742.000,4375.000
4288.000,4780.000,4363.000
4238.000,4733.000,4334.000
4227.000,4770.000,4466.000
4277.000,4690.000,4300.000
4258.000,4698.000,4331.000
4284.000,4793.000,4341.000
4244.000,4695.000,4329.000
4203.000,4692.000,4310.000
4233.000,4676.000,4331.000
4165.000,4707.000,4355.000
4193.000,4638.000,4252.000
4199.000,4606.000,4246.000
4126.000,4567.000,4246.000
4150.000,4581.000,4233.000
4152.000,4562.000,4251.000
4111.000,4640.000,4241.000
4163.000,4596.000,4265.000
4133.000,4542.000,4206.000
4109.000,4579.000,4231.000
4183.000,4558.000,4236.000
4111.000,4536.000,4244.000
4049.000,4532.000,4209.000
4141.000,4576.000,4242.000
4108.000,4552.000,4159.000
4145.000,4582.000,4197.000
4127.000,4643.000,4254.000
4200.000,4603.000,4262.000
4181.000,4625.000,4234.000
4205.000,4587.000,4285.000
4131.000,4607.000,4296.000
4189.000,4605.000,4299.000
4226.000,4689.000,4287.000
4283.000,4682.000,4276.000
4196.000,4624.000,4286.000
4211.000,4659.000,4256.000
4246.000,4674.000,4270.000
4179.000,4704.000,4295.000
4224.000,4643.000,4323.000
4164.000,4686.000,4241.000
4172.000,4621.000,4209.000
4146.000,4575.000,4283.000
4150.000,4603.000,4261.000
4183.000,4648.000,4277.000
4104.000,4583.000,4222.000
4104.000,4523.000,4239.000
4042.000,4473.000,4194.000
4002.000,4465.000,4099.000
4051.000,4478.000,4182.000
4003.000,4435.000,4116.000
4027.000,4427.000,4148.000
4010.000,4378.000,4105.000
3936.000,4408.000,4068.000
4036.000,4433.000,4027.000
3951.000,4347.000,4069.000
3955.000,4422.000,4043.000
4003.000,4442.000,4079.000
4004.000,4432.000,4060.000
3940.000,4403.000,3973.000
3975.000,4402.000,3993.000
3952.000,4369.000,4039.000
3962.000,4363.000,4045.000
3944.000,4384.000,4048.000
3933.000,4397.000,4027.000
3976.000,4427.000,4122.000
3965.000,4437.000,3982.000
3984.000,4412.000,4059.000
3983.000,4425.000,4011.000
3964.000,4401.000,4073.000
4036.000,4378.000,4046.000
3961.000,4517.000,4060.000
3953.000,4426.000,4081.000
3958.000,4392.000,4139.000
3946.000,4434.000,4046.000
3950.000,4368.000,4070.000
3943.000,4374.000,4023.000
3957.000,4399.000,4088.000
3936.000,4334.000,4042.000
3913.000,4346.000,4005.000
3931.000,4307.000,3929.000
3862.000,4300.000,3972.000
3878.000,4294.000,4012.000
3912.000,4280.000,3968.000
3865.000,4242.000,3925.000
3866.000,4188.000,3968.000
3835.000,4163.000,3876.000
3856.000,4245.000,3925.000
3810.000,4141.000,3815.000
3763.000,4174.000,3845.000
3799.000,4170.000,3865.000
3803.000,4186.000,3889.000
3765.000,4119.000,3802.000
3709.000,4123.000,3785.000
3748.000,4082.000,3820.000
3716.000,4046.000,3734.000
3624.000,4075.000,3748.000
3669.000,4041.000,3768.000
3600.000,4027.000,3758.000
3653.000,3997.000,3726.000
3618.000,4007.000,3714.000
3633.000,4014.000,3707.000
3606.000,4020.000,3652.000
3602.000,3976.000,3632.000
3607.000,3972.000,3642.000
3631.000,3995.000,3710.000
3584.000,4016.000,3706.000
3621.000,3981.000,3694.000
3621.000,4037.000,3670.000
3625.000,3991.000,3697.000
3581.000,3968.000,3705.000
3630.000,4037.000,3741.000
3668.000,3978.000,3723.000
3627.000,4033.000,3719.000
3671.000,4051.000,3687.000
3663.000,4001.000,3690.000
3650.000,4051.000,3711.000
3591.000,4007.000,3699.000
3582.000,4016.000,3641.000
3578.000,3978.000,3641.000
3527.000,3887.000,3719.000
3573.000,3964.000,3642.000
3540.000,3944.000,3622.000
3520.000,3953.000,3672.000
3517.000,3910.000,3636.000
3515.000,3890.000,3589.000
3533.000,3908.000,3608.000
3494.000,3873.000,3569.000
3503.000,3879.000,3678.000
3449.000,3894.000,3612.000
3516.000,3854.000,3503.000
3452.000,3830.000,3518.000
3470.000,3874.000,3484.000
3508.000,3738.000,3472.000
3425.000,3783.000,3482.000
3374.000,3751.000,3477.000
3404.000,3684.000,3475.000
3337.000,3691.000,3391.000
3361.000,3641.000,3418.000
3284.000,3701.000,3403.000
3293.000,3643.000,3390.000
3304.000,3638.000,3370.000
3285.000,3625.000,3419.000
3282.000,3595.000,3399.000
3287.000,3623.000,3338.000
3319.000,3610.000,3355.000
3275.000,3597.000,3364.000
3258.000,3620.000,3344.000
3230.000,3558.000,3304.000
3274.000,3551.000,3292.000
3236.000,3585.000,3335.000
3290.000,3553.000,3326.000
3270.000,3597.000,3340.000
3255.000,3565.000,3329.000
3229.000,3565.000,3291.000
3221.000,3577.000,3342.000
3285.000,3526.000,3333.000
3331.000,3625.000,3335.000
3256.000,3645.000,3324.000
3265.000,3527.000,3370.000
3279.000,3586.000,3315.000
3227.000,3550.000,3337.000
3240.000,3530.000,3265.000
3223.000,3501.000,3290.000
3234.000,3522.000,3319.000
3240.000,3525.000,3293.000
3214.000,3526.000,3285.000
3186.000,3536.000,3216.000
3161.000,3453.000,3287.000
3204.000,3478.000,3248.000
3187.000,3423.000,3238.000
3208.000,3464.000,3210.000
3182.000,3484.000,3210.000
3148.000,3467.000,3246.000
3128.000,3443.000,3201.000
3118.000,3404.000,3222.000
3133.000,3442.000,3192.000
3161.000,3399.000,3159.000
3095.000,3355.000,3147.000
3067.000,3308.000,3131.000
3040.000,3359.000,3138.000
3057.000,3289.000,3103.000
3034.000,3272.000,3116.000
2979.000,3288.000,3041.000
2997.000,3273.000,3026.000
2963.000,3220.000,3014.000
2997.000,3227.000,3081.000
2933.000,3190.000,3018.000
2891.000,3166.000,3014.000
2904.000,3155.000,2982.000
2892.000,3192.000,2947.000
2930.000,3129.000,2950.000
2912.000,3181.000,2942.000
2896.000,3114.000,2930.000
2846.000,3140.000,2953.000
2881.000,3155.000,2953.000
2892.000,3089.000,2931.000
2899.000,3058.000,2883.000
2873.000,3086.000,2889.000
2838.000,3057.000,2877.000
2876.000,3089.000,2890.000
2858.000,3072.000,2914.000
2881.000,3137.000,2890.000
2852.000,3095.000,2893.000
2815.000,3096.000,2842.000
2851.000,3091.000,2909.000
2813.000,3078.000,2871.000
2871.000,3107.000,2855.000
2840.000,3062.000,2914.000
2801.000,3088.000,2871.000
2810.000,3030.000,2889.000
2826.000,3087.000,2899.000
2810.000,3068.000,2876.000
2806.000,3057.000,2863.000
2832.000,3022.000,2856.000
2772.000,3022.000,2855.000
2781.000,2983.000,2834.000
2741.000,3031.000,2808.000
2737.000,2957.000,2792.000
2836.000,2943.000,2791.000
2715.000,2949.000,2794.000
2748.000,2961.000,2756.000
2695.000,2926.000,2727.000
2680.000,2974.000,2726.000
2692.000,2901.000,2735.000
2650.000,2904.000,2711.000
2638.000,2885.000,2742.000
2630.000,2831.000,2670.000
2629.000,2846.000,2657.000
2624.000,2824.000,2666.000
2612.000,2809.000,2630.000
2623.000,2831.000,2631.000
2589.000,2803.000,2616.000
2582.000,2758.000,2602.000
2542.000,2763.000,2571.000
2547.000,2768.000,2587.000
2517.000,2685.000,2577.000
2515.000,2670.000,2560.000
2505.000,2644.000,2548.000
2490.000,2707.000,2551.000
2506.000,2643.000,2540.000
2492.000,2697.000,2532.000
2443.000,2601.000,2507.000
2487.000,2667.000,2520.000
2474.000,2626.000,2477.000
2478.000,2640.000,2504.000
2419.000,2670.000,2531.000
2481.000,2696.000,2513.000
2437.000,2630.000,2512.000
2485.000,2643.000,2532.000
2455.000,2626.000,2494.000
2445.000,2633.000,2500.000
2445.000,2675.000,2500.000
2409.000,2589.000,2471.000
2465.000,2625.000,2485.000
2420.000,2642.000,2452.000
2430.000,2615.000,2462.000
2444.000,2590.000,2441.000
2442.000,2580.000,2455.000
2387.000,2566.000,2464.000
2367.000,2557.000,2437.000
2344.000,2540.000,2413.000
2368.000,2529.000,2415.000
2361.000,2552.000,2368.000
2376.000,2538.000,2404.000
2361.000,2507.000,2373.000
2331.000,2465.000,2362.000
2324.000,2482.000,2308.000
2304.000,2470.000,2336.000
2276.000,2492.000,2346.000
2287.000,2439.000,2347.000
2299.000,2439.000,2339.000
2290.000,2419.000,2298.000
2268.000,2439.000,2312.000
2250.000,2375.000,2275.000
2223.000,2424.000,2247.000
2232.000,2377.000,2199.000
2200.000,2346.000,2224.000
