Focus Mode,Read Mode,Exposure Time (sec),Number of Frames,Start Y,End Y,Date,Time,Position (microns)
Single Acquisition,Spectrum,20.000000,3,105,125,2/10/2021,2:35:55 PM,0.000000,0.000000,220.000000,

1245.000,1244.000,1249.000
1249.000,1245.000,1251.000
1248.000,1243.000,1244.000
1243.000,1245.000,1247.000
1246.000,1238.000,1250.000
1246.000,1250.000,1251.000
1251.000,1255.000,1253.000
1253.000,1256.000,1247.000
1245.000,1250.000,1257.000
1248.000,1254.000,1255.000
1255.000,1258.000,1253.000
1253.000,1251.000,1257.000
1254.000,1253.000,1256.000
1258.000,1250.000,1253.000
1248.000,1263.000,1255.000
1259.000,1264.000,1257.000
1259.000,1260.000,1265.000
1259.000,1264.000,1260.000
1262.000,1258.000,1264.000
1264.000,1262.000,1267.000
1258.000,1261.000,1266.000
1269.000,1260.000,1259.000
1262.000,1253.000,1268.000
1263.000,1265.000,1261.000
1269.000,1264.000,1264.000
1280.000,1278.000,1271.000
1278.000,1265.000,1270.000
1278.000,1277.000,1280.000
1278.000,1275.000,1277.000
1277.000,1283.000,1285.000
1280.000,1281.000,1277.000
1294.000,1282.000,1277.000
1284.000,1288.000,1284.000
1284.000,1282.000,1283.000
1284.000,1295.000,1284.000
1292.000,1296.000,1291.000
1287.000,1296.000,1295.000
1290.000,1302.000,1299.000
1300.000,1297.000,1287.000
1304.000,1296.000,1293.000
1303.000,1307.000,1305.000
1292.000,1301.000,1299.000
1303.000,1304.000,1300.000
1303.000,1313.000,1304.000
1302.000,1303.000,1305.000
1309.000,1318.000,1318.000
1325.000,1319.000,1317.000
1318.000,1334.000,1312.000
1319.000,1323.000,1314.000
1322.000,1321.000,1339.000
1338.000,1329.000,1327.000
1333.000,1346.000,1327.000
1331.000,1340.000,1331.000
1343.000,1336.000,1346.000
1334.000,1349.000,1349.000
1355.000,1350.000,1353.000
1356.000,1355.000,1358.000
1361.000,1355.000,1376.000
1366.000,1355.000,1370.000
1371.000,1368.000,1371.000
1380.000,1381.000,1380.000
1385.000,1374.000,1378.000
1377.000,1396.000,1397.000
1385.000,1387.000,1390.000
1391.000,1381.000,1396.000
1400.000,1414.000,1419.000
1411.000,1409.000,1405.000
1428.000,1416.000,1423.000
1405.000,1422.000,1437.000
1431.000,1414.000,1435.000
1442.000,1436.000,1451.000
1441.000,1447.000,1451.000
1456.000,1445.000,1445.000
1465.000,1471.000,1461.000
1465.000,1485.000,1481.000
1500.000,1498.000,1502.000
1511.000,1498.000,1498.000
1520.000,1526.000,1531.000
1524.000,1536.000,1532.000
1537.000,1546.000,1548.000
1547.000,1559.000,1556.000
1543.000,1558.000,1573.000
1550.000,1593.000,1596.000
1592.000,1593.000,1608.000
1596.000,1605.000,1618.000
1623.000,1609.000,1616.000
1631.000,1638.000,1642.000
1632.000,1652.000,1644.000
1656.000,1674.000,1659.000
1677.000,1672.000,1672.000
1700.000,1701.000,1686.000
1701.000,1704.000,1705.000
1730.000,1708.000,1734.000
1750.000,1753.000,1725.000
1761.000,1786.000,1750.000
1800.000,1809.000,1826.000
1830.000,1875.000,1835.000
1867.000,1903.000,1890.000
1956.000,1976.000,1971.000
2022.000,2051.000,2034.000
2113.000,2070.000,2112.000
2211.000,2207.000,2191.000
2279.000,2281.000,2281.000
2364.000,2358.000,2361.000
2419.000,2687.000,2415.000
2507.000,3011.000,2491.000
2521.000,2643.000,2534.000
2535.000,2553.000,2536.000
2557.000,2541.000,2603.000
2584.000,2572.000,2613.000
2641.000,2625.000,2600.000
2640.000,2613.000,2623.000
2606.000,2627.000,2670.000
2667.000,2676.000,2666.000
2707.000,2733.000,2723.000
2754.000,2717.000,2748.000
2832.000,2834.000,2897.000
2934.000,2988.000,2972.000
3108.000,3162.000,3158.000
3369.000,3376.000,3410.000
3769.000,3862.000,3867.000
4497.000,4607.000,4628.000
5995.000,6081.000,6315.000
9992.000,10147.000,10836.000
22423.000,23314.000,25001.000
62281.000,61675.000,61666.000
61541.000,62161.000,62160.000
62056.000,62080.000,62081.000
62014.000,62017.000,62022.000
62032.000,62029.000,62029.000
62022.000,62024.000,62020.000
62000.000,61998.000,62002.000
61994.000,61999.000,62002.000
62003.000,62002.000,62006.000
61992.000,61991.000,61997.000
61989.000,61997.000,61991.000
61992.000,61996.000,61995.000
61988.000,61990.000,61994.000
61980.000,61991.000,61987.000
61993.000,61987.000,61990.000
61986.000,61988.000,61992.000
61986.000,61988.000,61988.000
61986.000,61988.000,61986.000
61981.000,61995.000,61994.000
61988.000,61989.000,61989.000
61986.000,61988.000,61982.000
61984.000,61988.000,61989.000
61982.000,61984.000,61989.000
61986.000,61988.000,61982.000
61984.000,61987.000,61988.000
61982.000,61986.000,61987.000
61986.000,61988.000,61986.000
61978.000,61986.000,61986.000
61986.000,61982.000,61984.000
61981.000,61980.000,61990.000
61987.000,61984.000,61986.000
61983.000,61985.000,61984.000
61983.000,61985.000,61986.000
61980.000,61983.000,61989.000
61982.000,61982.000,61988.000
61981.000,61987.000,61992.000
61980.000,61982.000,61985.000
61991.000,61987.000,61987.000
61986.000,61980.000,61987.000
61985.000,61982.000,61986.000
61990.000,61981.000,61987.000
61987.000,61981.000,61987.000
61989.000,61982.000,61983.000
61986.000,61991.000,61988.000
61988.000,61984.000,61984.000
61991.000,61988.000,61988.000
61990.000,61988.000,61984.000
61992.000,61985.000,61991.000
62015.000,61989.000,61992.000
62043.000,62005.000,62008.000
6666.000,62027.000,62026.000
1559.000,62383.000,43863.000
1548.000,1673.000,1658.000
1541.000,1562.000,1569.000
1541.000,1543.000,1541.000
1516.000,1532.000,1539.000
1502.000,1520.000,1519.000
1506.000,1498.000,1509.000
1477.000,1491.000,1500.000
1465.000,1499.000,1484.000
1459.000,1464.000,1482.000
1454.000,1480.000,1469.000
1447.000,1453.000,1456.000
1428.000,1446.000,1472.000
1442.000,1448.000,1442.000
1430.000,1436.000,1432.000
1425.000,1428.000,1439.000
1414.000,1420.000,1430.000
1413.000,1411.000,1417.000
1410.000,1423.000,1429.000
1411.000,1416.000,1404.000
1401.000,1383.000,1412.000
1391.000,1416.000,1413.000
1394.000,1397.000,1406.000
1377.000,1406.000,1402.000
1393.000,1407.000,1383.000
1385.000,1410.000,1402.000
1403.000,1385.000,1396.000
1383.000,1389.000,1395.000
1383.000,1399.000,1385.000
1380.000,1388.000,1392.000
1380.000,1380.000,1378.000
1353.000,1373.000,1376.000
1367.000,1393.000,1363.000
1358.000,1366.000,1369.000
1374.000,1361.000,1359.000
1371.000,1366.000,1359.000
1347.000,1363.000,1364.000
1339.000,1352.000,1363.000
1353.000,1355.000,1352.000
1353.000,1349.000,1355.000
1340.000,1351.000,1345.000
1352.000,1349.000,1349.000
1341.000,1343.000,1337.000
1346.000,1359.000,1349.000
1328.000,1336.000,1332.000
1349.000,1352.000,1328.000
1330.000,1339.000,1343.000
1334.000,1337.000,1337.000
1330.000,1342.000,1338.000
1336.000,1333.000,1323.000
1318.000,1343.000,1329.000
1321.000,1328.000,1339.000
1328.000,1329.000,1333.000
1326.000,1329.000,1336.000
1313.000,1326.000,1322.000
1313.000,1324.000,1319.000
1319.000,1330.000,1326.000
1322.000,1313.000,1319.000
1308.000,1327.000,1327.000
1322.000,1318.000,1321.000
1319.000,1324.000,1323.000
1318.000,1315.000,1315.000
1319.000,1314.000,1326.000
1313.000,1325.000,1310.000
1316.000,1301.000,1312.000
1305.000,1307.000,1304.000
1308.000,1309.000,1310.000
1314.000,1312.000,1313.000
1303.000,1310.000,1301.000
1296.000,1304.000,1307.000
1300.000,1309.000,1296.000
1301.000,1307.000,1302.000
1303.000,1307.000,1301.000
1302.000,1303.000,1303.000
1300.000,1292.000,1303.000
1294.000,1294.000,1300.000
1302.000,1299.000,1295.000
1301.000,1308.000,1297.000
1301.000,1300.000,1296.000
1296.000,1297.000,1300.000
1287.000,1294.000,1299.000
1292.000,1296.000,1311.000
1296.000,1306.000,1297.000
1293.000,1287.000,1305.000
1295.000,1293.000,1303.000
1290.000,1297.000,1298.000
1288.000,1306.000,1296.000
1289.000,1291.000,1295.000
1283.000,1292.000,1295.000
1291.000,1280.000,1295.000
1291.000,1286.000,1295.000
1291.000,1288.000,1286.000
1287.000,1294.000,1274.000
1285.000,1279.000,1296.000
1286.000,1286.000,1292.000
1297.000,1291.000,1287.000
1283.000,1288.000,1288.000
1280.000,1289.000,1288.000
1289.000,1279.000,1286.000
1276.000,1289.000,1281.000
1289.000,1287.000,1285.000
1279.000,1282.000,1289.000
1287.000,1288.000,1289.000
1283.000,1287.000,1291.000
1282.000,1281.000,1282.000
1280.000,1283.000,1284.000
1284.000,1288.000,1290.000
1284.000,1290.000,1283.000
1282.000,1287.000,1291.000
1286.000,1291.000,1295.000
1293.000,1280.000,1290.000
1290.000,1293.000,1285.000
1281.000,1279.000,1287.000
1298.000,1293.000,1291.000
1282.000,1288.000,1294.000
1297.000,1293.000,1293.000
1292.000,1287.000,1300.000
1288.000,1300.000,1306.000
1289.000,1301.000,1297.000
1307.000,1302.000,1302.000
1291.000,1305.000,1306.000
1308.000,1307.000,1317.000
1303.000,1313.000,1321.000
1318.000,1313.000,1311.000
1323.000,1318.000,1322.000
1330.000,1339.000,1333.000
1346.000,1341.000,1339.000
1363.000,1356.000,1343.000
1373.000,1370.000,1367.000
1389.000,1371.000,1379.000
1395.000,1399.000,1399.000
1429.000,1413.000,1424.000
1451.000,1435.000,1470.000
1478.000,1461.000,1496.000
1517.000,1502.000,1505.000
1551.000,1552.000,1558.000
1580.000,1595.000,1594.000
1661.000,1647.000,1640.000
1726.000,1717.000,1705.000
1781.000,1757.000,1775.000
1846.000,1822.000,1824.000
1909.000,1904.000,1926.000
1995.000,1989.000,1943.000
2056.000,2067.000,2065.000
2132.000,2121.000,2121.000
2201.000,2163.000,2213.000
2272.000,2260.000,2304.000
2313.000,2343.000,2346.000
2417.000,2401.000,2415.000
2473.000,2414.000,2441.000
2473.000,2472.000,2470.000
2484.000,2518.000,2507.000
2565.000,2492.000,2507.000
2535.000,2508.000,2519.000
2549.000,2563.000,2542.000
2517.000,2530.000,2525.000
2510.000,2523.000,2468.000
2521.000,2534.000,2492.000
2515.000,2520.000,2493.000
2493.000,2520.000,2486.000
2504.000,2497.000,2512.000
2495.000,2445.000,2476.000
2455.000,2472.000,2500.000
2432.000,2451.000,2419.000
2475.000,2454.000,2475.000
2436.000,2426.000,2392.000
2456.000,2421.000,2414.000
2420.000,2409.000,2398.000
2405.000,2401.000,2392.000
2397.000,2402.000,2398.000
2363.000,2375.000,2378.000
2384.000,2356.000,2376.000
2398.000,2357.000,2393.000
2353.000,2337.000,2344.000
2347.000,2340.000,2353.000
2296.000,2335.000,2310.000
2311.000,2331.000,2314.000
2342.000,2308.000,2303.000
2275.000,2298.000,2341.000
2323.000,2311.000,2326.000
2270.000,2269.000,2308.000
2281.000,2264.000,2276.000
2298.000,2311.000,2288.000
2291.000,2280.000,2265.000
2279.000,2256.000,2307.000
2258.000,2253.000,2264.000
2246.000,2271.000,2255.000
2263.000,2242.000,2258.000
2260.000,2237.000,2216.000
2244.000,2234.000,2265.000
2251.000,2259.000,2233.000
2225.000,2203.000,2219.000
2213.000,2237.000,2225.000
2215.000,2278.000,2239.000
2243.000,2238.000,2268.000
2258.000,2235.000,2229.000
2253.000,2253.000,2238.000
2224.000,2266.000,2189.000
2256.000,2245.000,2232.000
2260.000,2206.000,2255.000
2230.000,2231.000,2203.000
2240.000,2224.000,2233.000
2230.000,2251.000,2207.000
2243.000,2243.000,2214.000
2223.000,2217.000,2199.000
2216.000,2224.000,2224.000
2224.000,2251.000,2261.000
2214.000,2215.000,2246.000
2230.000,2230.000,2220.000
2217.000,2224.000,2259.000
2229.000,2218.000,2231.000
2254.000,2236.000,2229.000
2265.000,2205.000,2238.000
2240.000,2250.000,2233.000
2248.000,2235.000,2229.000
2282.000,2234.000,2262.000
2242.000,2255.000,2253.000
2248.000,2277.000,2261.000
2258.000,2253.000,2265.000
2265.000,2266.000,2266.000
2296.000,2272.000,2245.000
2272.000,2280.000,2285.000
2274.000,2270.000,2281.000
2282.000,2286.000,2259.000
2266.000,2305.000,2265.000
2277.000,2269.000,2279.000
2307.000,2276.000,2292.000
2274.000,2306.000,2279.000
2303.000,2300.000,2286.000
2265.000,2300.000,2293.000
2282.000,2296.000,2290.000
2290.000,2308.000,2299.000
2277.000,2299.000,2285.000
2301.000,2300.000,2321.000
2325.000,2288.000,2314.000
2319.000,2310.000,2317.000
2313.000,2306.000,2299.000
2335.000,2320.000,2297.000
2321.000,2290.000,2335.000
2334.000,2359.000,2302.000
2335.000,2365.000,2323.000
2342.000,2315.000,2329.000
2346.000,2331.000,2336.000
2354.000,2353.000,2379.000
2357.000,2332.000,2365.000
2316.000,2348.000,2349.000
2423.000,2357.000,2384.000
2365.000,2332.000,2358.000
2371.000,2367.000,2378.000
2349.000,2423.000,2425.000
2403.000,2410.000,2420.000
2377.000,2423.000,2412.000
2409.000,2402.000,2400.000
2434.000,2420.000,2433.000
2416.000,2449.000,2427.000
2439.000,2437.000,2407.000
2450.000,2473.000,2453.000
2457.000,2484.000,2477.000
2507.000,2482.000,2471.000
2500.000,2534.000,2522.000
2529.000,2516.000,2506.000
2576.000,2546.000,2562.000
2586.000,2577.000,2586.000
2605.000,2563.000,2543.000
2629.000,2612.000,2640.000
2649.000,2635.000,2646.000
2650.000,2663.000,2654.000
2680.000,2690.000,2725.000
2759.000,2778.000,2731.000
2811.000,2747.000,2748.000
2852.000,2819.000,2805.000
2892.000,2864.000,2906.000
2967.000,2972.000,2941.000
3036.000,3093.000,3053.000
3116.000,3121.000,3127.000
3189.000,3179.000,3191.000
3233.000,3247.000,3260.000
3315.000,3304.000,3337.000
3413.000,3393.000,3401.000
3491.000,3455.000,3425.000
3500.000,3545.000,3536.000
3556.000,3547.000,3547.000
3560.000,3574.000,3554.000
3571.000,3576.000,3552.000
3559.000,3518.000,3509.000
3484.000,3527.000,3551.000
3488.000,3457.000,3446.000
3438.000,3370.000,3429.000
3367.000,3347.000,3328.000
3307.000,3281.000,3297.000
3233.000,3205.000,3244.000
3148.000,3140.000,3173.000
3085.000,3076.000,3095.000
3022.000,3054.000,2982.000
2958.000,2962.000,2937.000
2927.000,2889.000,2875.000
2821.000,2872.000,2828.000
2795.000,2798.000,2821.000
2741.000,2720.000,2761.000
2723.000,2719.000,2709.000
2681.000,2681.000,2683.000
2695.000,2681.000,2633.000
2605.000,2624.000,2642.000
2606.000,2639.000,2607.000
2577.000,2566.000,2633.000
2553.000,2507.000,2525.000
2509.000,2529.000,2520.000
2510.000,2487.000,2498.000
2494.000,2510.000,2464.000
2481.000,2486.000,2505.000
2453.000,2482.000,2476.000
2443.000,2475.000,2468.000
2426.000,2471.000,2419.000
2441.000,2410.000,2412.000
2408.000,2473.000,2446.000
2421.000,2456.000,2415.000
2422.000,2423.000,2370.000
2422.000,2398.000,2462.000
2405.000,2335.000,2399.000
2408.000,2406.000,2390.000
2412.000,2367.000,2407.000
2417.000,2397.000,2381.000
2409.000,2439.000,2380.000
2383.000,2395.000,2393.000
2342.000,2379.000,2378.000
2365.000,2378.000,2395.000
2375.000,2357.000,2366.000
2382.000,2359.000,2372.000
2387.000,2386.000,2372.000
2339.000,2368.000,2326.000
2339.000,2327.000,2341.000
2339.000,2336.000,2332.000
2375.000,2343.000,2328.000
2359.000,2323.000,2336.000
2296.000,2293.000,2314.000
2287.000,2302.000,2279.000
2303.000,2287.000,2275.000
2280.000,2277.000,2272.000
2253.000,2264.000,2248.000
2241.000,2217.000,2271.000
2195.000,2206.000,2233.000
2186.000,2216.000,2241.000
2155.000,2201.000,2232.000
2181.000,2192.000,2181.000
2175.000,2165.000,2201.000
2180.000,2190.000,2178.000
2154.000,2156.000,2146.000
2142.000,2153.000,2150.000
2134.000,2128.000,2134.000
2142.000,2152.000,2153.000
2139.000,2125.000,2099.000
2124.000,2103.000,2112.000
2127.000,2127.000,2157.000
2103.000,2113.000,2109.000
2124.000,2093.000,2086.000
2101.000,2092.000,2073.000
2121.000,2080.000,2071.000
2107.000,2080.000,2057.000
2072.000,2077.000,2103.000
2086.000,2076.000,2085.000
2062.000,2072.000,2091.000
2054.000,2101.000,2067.000
2074.000,2072.000,2075.000
2078.000,2062.000,2061.000
2022.000,2063.000,2057.000
2028.000,2026.000,2032.000
2070.000,2017.000,2099.000
2073.000,2058.000,2060.000
2057.000,2044.000,2045.000
2063.000,2017.000,2033.000
2034.000,2046.000,2047.000
2057.000,2034.000,2058.000
2015.000,2054.000,2005.000
2030.000,2012.000,2020.000
2033.000,2031.000,2033.000
2026.000,2012.000,2021.000
2027.000,2013.000,2048.000
2025.000,2001.000,2059.000
2034.000,2004.000,1978.000
2015.000,2000.000,2033.000
2021.000,2034.000,2029.000
2023.000,2003.000,2005.000
1994.000,2041.000,2009.000
2016.000,2002.000,2036.000
2039.000,2027.000,2031.000
2037.000,2020.000,1997.000
2031.000,2019.000,2027.000
2008.000,1980.000,2005.000
2054.000,1999.000,1996.000
2029.000,2030.000,2000.000
2013.000,1996.000,2018.000
2005.000,2011.000,2019.000
1993.000,1986.000,2010.000
2024.000,2027.000,2056.000
2016.000,1999.000,2024.000
2010.000,2019.000,1996.000
2004.000,1980.000,2010.000
2002.000,1992.000,2034.000
2000.000,2010.000,2018.000
2022.000,2017.000,2010.000
2004.000,2009.000,2007.000
2027.000,2022.000,2021.000
2003.000,2011.000,2021.000
1992.000,1981.000,1985.000
2005.000,1984.000,2013.000
1983.000,1988.000,1975.000
2018.000,2016.000,2004.000
1997.000,1983.000,1987.000
1990.000,2009.000,1992.000
2035.000,2001.000,2015.000
2017.000,2019.000,2018.000
2025.000,2003.000,2012.000
2035.000,1993.000,1993.000
2035.000,2032.000,1997.000
2051.000,2027.000,2012.000
2015.000,2009.000,2009.000
2041.000,1982.000,1991.000
2015.000,1984.000,2041.000
2031.000,1994.000,2002.000
1986.000,2020.000,2010.000
1995.000,1995.000,1994.000
1993.000,2012.000,1980.000
1997.000,1971.000,1996.000
2000.000,1998.000,1958.000
1978.000,1977.000,2019.000
1968.000,1999.000,1969.000
1999.000,2007.000,1979.000
1967.000,1975.000,1977.000
1997.000,1968.000,1954.000
1976.000,1960.000,1989.000
1982.000,1958.000,1947.000
1994.000,1975.000,1974.000
1952.000,1979.000,1952.000
1943.000,1982.000,1979.000
1968.000,1953.000,1979.000
1967.000,1933.000,1945.000
1935.000,1958.000,1955.000
1949.000,1906.000,1933.000
1947.000,1948.000,1916.000
1922.000,1964.000,1895.000
1925.000,1963.000,1915.000
1943.000,1935.000,1961.000
1923.000,1936.000,1935.000
1960.000,1947.000,1940.000
1932.000,1932.000,1928.000
1926.000,1936.000,1943.000
1933.000,1931.000,1924.000
1906.000,1919.000,1967.000
1934.000,1929.000,1934.000
1931.000,1936.000,1923.000
1918.000,1921.000,1904.000
1894.000,1936.000,1935.000
1905.000,1937.000,1943.000
1912.000,1915.000,1926.000
1915.000,1936.000,1923.000
1912.000,1939.000,1940.000
1933.000,1913.000,1906.000
1917.000,1913.000,1903.000
1913.000,1910.000,1923.000
1913.000,1919.000,1924.000
1942.000,1916.000,1906.000
1950.000,1921.000,1934.000
1918.000,1910.000,1927.000
1883.000,1904.000,1947.000
1917.000,1929.000,1895.000
1906.000,1900.000,1946.000
1945.000,1931.000,1928.000
1899.000,1926.000,1915.000
1909.000,1898.000,1918.000
1950.000,1912.000,1887.000
1935.000,1914.000,1902.000
1924.000,1898.000,1922.000
1934.000,1918.000,1896.000
1896.000,1903.000,1916.000
1912.000,1931.000,1904.000
1913.000,1896.000,1916.000
1947.000,1910.000,1873.000
1903.000,1911.000,1915.000
1889.000,1911.000,1920.000
1906.000,1904.000,1890.000
1903.000,1896.000,1879.000
1920.000,1910.000,1918.000
1944.000,1899.000,1902.000
1908.000,1912.000,1916.000
1906.000,1900.000,1921.000
1923.000,1911.000,1920.000
1907.000,1902.000,1892.000
1928.000,1903.000,1905.000
1909.000,1938.000,1875.000
1913.000,1923.000,1936.000
1903.000,1905.000,1924.000
1904.000,1899.000,1901.000
1925.000,1894.000,1891.000
1909.000,1922.000,1907.000
1922.000,1897.000,1897.000
1922.000,1899.000,1916.000
1904.000,1882.000,1898.000
1906.000,1904.000,1911.000
1901.000,1893.000,1924.000
1921.000,1901.000,1921.000
1910.000,1917.000,1904.000
1891.000,1890.000,1911.000
1887.000,1897.000,1899.000
1902.000,1928.000,1878.000
1934.000,1896.000,1908.000
1888.000,1902.000,1911.000
1911.000,1935.000,1898.000
1893.000,1913.000,1911.000
1887.000,1882.000,1914.000
1933.000,1877.000,1947.000
1900.000,1892.000,1885.000
1924.000,1896.000,1913.000
1887.000,1903.000,1911.000
1892.000,1908.000,1911.000
1901.000,1910.000,1897.000
1891.000,1897.000,1899.000
1899.000,1873.000,1919.000
1909.000,1901.000,1913.000
1913.000,1901.000,1908.000
1898.000,1904.000,1890.000
1921.000,1895.000,1873.000
1898.000,1895.000,1895.000
1894.000,1894.000,1918.000
1914.000,1916.000,1902.000
1888.000,1898.000,1909.000
1900.000,1909.000,1898.000
1923.000,1911.000,1893.000
1914.000,1872.000,1904.000
1916.000,1892.000,1919.000
1896.000,1920.000,1886.000
1915.000,1890.000,1956.000
1908.000,1895.000,1911.000
1918.000,1918.000,1911.000
1940.000,1922.000,1914.000
1903.000,1910.000,1906.000
1928.000,1930.000,1897.000
1931.000,1902.000,1924.000
1889.000,1935.000,1903.000
1909.000,1939.000,1924.000
1920.000,1896.000,1907.000
1900.000,1914.000,1902.000
1926.000,1921.000,1909.000
1923.000,1921.000,1906.000
1913.000,1929.000,1908.000
1913.000,1904.000,1948.000
1926.000,1881.000,1910.000
1920.000,1922.000,1915.000
1929.000,1928.000,1932.000
1919.000,1928.000,1904.000
1936.000,1927.000,1937.000
1909.000,1889.000,1906.000
1898.000,1942.000,1924.000
1907.000,1964.000,1920.000
1968.000,1912.000,1944.000
1947.000,1919.000,1948.000
1954.000,1928.000,1922.000
1939.000,1947.000,1925.000
1961.000,1936.000,1958.000
1978.000,1961.000,1930.000
1955.000,1959.000,1920.000
1962.000,1960.000,1946.000
1928.000,1955.000,1973.000
1952.000,1947.000,1977.000
1950.000,1957.000,1951.000
1950.000,1963.000,1975.000
1940.000,1967.000,1942.000
1954.000,1969.000,1957.000
1977.000,1973.000,1957.000
1963.000,1980.000,1989.000
1966.000,1971.000,1952.000
1979.000,1979.000,1984.000
1969.000,1972.000,1967.000
1975.000,2014.000,1962.000
2014.000,1996.000,1998.000
2010.000,1981.000,2007.000
2004.000,1969.000,1996.000
1976.000,1997.000,1977.000
1988.000,2005.000,2004.000
2040.000,2027.000,1997.000
2012.000,1995.000,1993.000
2034.000,2009.000,2025.000
2013.000,2020.000,2010.000
2010.000,2031.000,2029.000
2011.000,2021.000,2044.000
2044.000,2058.000,2057.000
2060.000,2086.000,2023.000
2050.000,2076.000,2030.000
2057.000,2058.000,2062.000
2045.000,2050.000,2068.000
2067.000,2102.000,2063.000
2033.000,2079.000,2081.000
2110.000,2063.000,2036.000
2087.000,2060.000,2063.000
2042.000,2083.000,2015.000
2065.000,2054.000,2089.000
2071.000,2045.000,2083.000
2023.000,2060.000,2032.000
2086.000,2086.000,2038.000
2101.000,2064.000,2066.000
2095.000,2105.000,2071.000
2055.000,2107.000,2084.000
2076.000,2083.000,2065.000
2083.000,2066.000,2083.000
2077.000,2076.000,2079.000
2073.000,2067.000,2094.000
2106.000,2076.000,2095.000
2065.000,2065.000,2085.000
2092.000,2104.000,2080.000
2078.000,2105.000,2120.000
2128.000,2106.000,2110.000
2096.000,2110.000,2107.000
2136.000,2144.000,2110.000
2148.000,2128.000,2150.000
2146.000,2173.000,2144.000
2157.000,2137.000,2139.000
2158.000,2173.000,2132.000
2174.000,2193.000,2166.000
2176.000,2189.000,2208.000
2192.000,2198.000,2195.000
2233.000,2237.000,2226.000
2248.000,2240.000,2256.000
2284.000,2239.000,2229.000
2254.000,2299.000,2271.000
2302.000,2312.000,2293.000
2339.000,2325.000,2345.000
2353.000,2377.000,2374.000
2397.000,2379.000,2364.000
2425.000,2400.000,2365.000
2463.000,2445.000,2487.000
2513.000,2546.000,2548.000
2598.000,2608.000,2567.000
2674.000,2686.000,2674.000
2782.000,2768.000,2787.000
2904.000,2895.000,2896.000
3009.000,2997.000,2995.000
3178.000,3166.000,3160.000
3327.000,3346.000,3281.000
3559.000,3616.000,3646.000
3889.000,3907.000,3925.000
4267.000,4323.000,4317.000
4797.000,4801.000,4833.000
5381.000,5393.000,5435.000
6113.000,6061.000,6183.000
6939.000,6933.000,6934.000
7827.000,8015.000,7910.000
8858.000,8891.000,8844.000
9946.000,9926.000,9915.000
10732.000,10739.000,10696.000
11527.000,11475.000,11519.000
12017.000,11970.000,11993.000
12131.000,12098.000,12224.000
12061.000,12182.000,12016.000
11790.000,11704.000,11626.000
11153.000,11039.000,11022.000
10070.000,10201.000,10041.000
9261.000,9254.000,9216.000
8285.000,8218.000,8316.000
7320.000,7294.000,7304.000
6499.000,6432.000,6355.000
5674.000,5681.000,5539.000
5070.000,5004.000,5031.000
4512.000,4495.000,4491.000
4040.000,3984.000,4031.000
3714.000,3684.000,3654.000
3402.000,3406.000,3342.000
3201.000,3186.000,3147.000
3010.000,2986.000,2981.000
2874.000,2817.000,2851.000
2760.000,2752.000,2702.000
2619.000,2654.000,2643.000
2543.000,2532.000,2525.000
2469.000,2507.000,2470.000
2455.000,2417.000,2408.000
2356.000,2373.000,2360.000
2344.000,2300.000,2339.000
2299.000,2298.000,2251.000
2258.000,2254.000,2239.000
2235.000,2229.000,2219.000
2197.000,2215.000,2183.000
2191.000,2183.000,2158.000
2140.000,2126.000,2134.000
2150.000,2134.000,2134.000
2090.000,2109.000,2123.000
2090.000,2095.000,2081.000
2088.000,2071.000,2092.000
2081.000,2071.000,2049.000
2046.000,2022.000,2054.000
2009.000,2028.000,2049.000
2015.000,2036.000,2039.000
1999.000,2039.000,2017.000
2030.000,2010.000,2023.000
2001.000,1993.000,1995.000
2002.000,2000.000,1975.000
1971.000,2008.000,1994.000
1942.000,1985.000,1980.000
1980.000,1984.000,1954.000
1989.000,1974.000,1947.000
1973.000,1964.000,1957.000
1960.000,1929.000,1960.000
1968.000,1941.000,1931.000
1958.000,1934.000,1957.000
1982.000,1951.000,1944.000
1945.000,1934.000,1975.000
1934.000,1946.000,1916.000
1941.000,1955.000,1959.000
1920.000,1935.000,1966.000
1910.000,1947.000,1922.000
1927.000,1920.000,1937.000
1908.000,1905.000,1913.000
1904.000,1916.000,1913.000
1920.000,1918.000,1945.000
1943.000,1918.000,1926.000
1909.000,1927.000,1936.000
1919.000,1917.000,1923.000
1945.000,1870.000,1871.000
1923.000,1898.000,1904.000
1893.000,1921.000,1876.000
1924.000,1891.000,1901.000
1898.000,1897.000,1880.000
1895.000,1927.000,1931.000
1895.000,1893.000,1929.000
1897.000,1883.000,1891.000
1895.000,1893.000,1895.000
1925.000,1903.000,1907.000
1902.000,1924.000,1894.000
1896.000,1908.000,1892.000
1925.000,1888.000,1892.000
1893.000,1914.000,1891.000
1907.000,1908.000,1902.000
1907.000,1890.000,1912.000
1903.000,1892.000,1924.000
1902.000,1914.000,1869.000
1913.000,1928.000,1918.000
1897.000,1923.000,1869.000
1935.000,1913.000,1904.000
1910.000,1910.000,1928.000
1910.000,1910.000,1936.000
1932.000,1915.000,1917.000
1912.000,1909.000,1946.000
1931.000,1919.000,1923.000
1926.000,1906.000,1921.000
1935.000,1930.000,1938.000
1929.000,1934.000,1956.000
1924.000,1969.000,1935.000
1935.000,1944.000,1923.000
1953.000,1946.000,1946.000
1947.000,1944.000,1943.000
1947.000,1959.000,1967.000
1948.000,1928.000,1933.000
1976.000,1971.000,1981.000
1953.000,1960.000,1939.000
1956.000,1970.000,1949.000
1974.000,1987.000,1974.000
1998.000,1984.000,1960.000
2018.000,1992.000,1998.000
2004.000,1999.000,1973.000
1984.000,2027.000,1996.000
2021.000,1999.000,2005.000
2037.000,2011.000,2008.000
2021.000,2031.000,1999.000
2060.000,2050.000,2035.000
2047.000,2033.000,2033.000
2056.000,2056.000,2032.000
2039.000,2053.000,2071.000
2068.000,2103.000,2074.000
2086.000,2079.000,2102.000
2058.000,2072.000,2086.000
2094.000,2092.000,2107.000
2125.000,2092.000,2117.000
2157.000,2148.000,2133.000
2167.000,2127.000,2159.000
2170.000,2169.000,2135.000
2201.000,2184.000,2214.000
2198.000,2225.000,2212.000
2194.000,2258.000,2255.000
2223.000,2257.000,2265.000
2320.000,2235.000,2283.000
2316.000,2336.000,2316.000
2334.000,2342.000,2312.000
2424.000,2405.000,2429.000
2439.000,2427.000,2423.000
2446.000,2471.000,2494.000
2546.000,2569.000,2551.000
2588.000,2591.000,2601.000
2698.000,2689.000,2647.000
2750.000,2738.000,2753.000
2850.000,2824.000,2855.000
2960.000,2915.000,2950.000
3044.000,3053.000,3061.000
3153.000,3217.000,3231.000
3338.000,3346.000,3379.000
3524.000,3517.000,3504.000
3733.000,3744.000,3666.000
3898.000,3885.000,3913.000
4139.000,4191.000,4036.000
4376.000,4358.000,4331.000
4471.000,4480.000,4464.000
4681.000,4679.000,4667.000
4851.000,4795.000,4774.000
4895.000,4882.000,4848.000
4843.000,4839.000,4927.000
4879.000,4797.000,4821.000
4848.000,4798.000,4828.000
4789.000,4772.000,4787.000
4622.000,4620.000,4617.000
4499.000,4474.000,4468.000
4322.000,4286.000,4254.000
4154.000,4172.000,4143.000
3969.000,3964.000,3975.000
3811.000,3839.000,3831.000
3665.000,3674.000,3665.000
3567.000,3516.000,3514.000
3461.000,3430.000,3444.000
3415.000,3381.000,3412.000
3313.000,3312.000,3309.000
3242.000,3279.000,3240.000
3237.000,3217.000,3199.000
3204.000,3243.000,3191.000
3224.000,3182.000,3181.000
3195.000,3187.000,3212.000
3198.000,3271.000,3220.000
3257.000,3250.000,3264.000
3311.000,3298.000,3292.000
3382.000,3357.000,3376.000
3407.000,3337.000,3343.000
3460.000,3501.000,3470.000
3515.000,3562.000,3545.000
3682.000,3663.000,3656.000
3687.000,3679.000,3738.000
3841.000,3815.000,3818.000
3910.000,3895.000,3886.000
3995.000,4023.000,4009.000
4066.000,4128.000,4126.000
4197.000,4177.000,4197.000
4322.000,4303.000,4331.000
4345.000,4345.000,4373.000
4417.000,4445.000,4398.000
4417.000,4473.000,4485.000
4485.000,4422.000,4467.000
4440.000,4437.000,4443.000
4434.000,4396.000,4392.000
4409.000,4362.000,4292.000
4231.000,4295.000,4208.000
4106.000,4111.000,4088.000
3995.000,3971.000,3997.000
3847.000,3800.000,3768.000
3603.000,3641.000,3646.000
3557.000,3495.000,3515.000
3357.000,3336.000,3336.000
3217.000,3250.000,3215.000
3110.000,3125.000,3135.000
3014.000,3005.000,3002.000
2929.000,2940.000,2939.000
2860.000,2869.000,2852.000
2763.000,2748.000,2789.000
2751.000,2727.000,2712.000
2659.000,2682.000,2664.000
2657.000,2635.000,2618.000
2609.000,2605.000,2600.000
2585.000,2575.000,2570.000
2552.000,2569.000,2584.000
2542.000,2522.000,2533.000
2536.000,2539.000,2531.000
2551.000,2537.000,2523.000
2503.000,2519.000,2530.000
2512.000,2514.000,2498.000
2495.000,2507.000,2500.000
2505.000,2488.000,2496.000
2519.000,2503.000,2481.000
2476.000,2471.000,2468.000
2494.000,2463.000,2504.000
2452.000,2471.000,2441.000
2426.000,2417.000,2436.000
2417.000,2436.000,2438.000
2385.000,2390.000,2397.000
2388.000,2409.000,2380.000
2404.000,2361.000,2343.000
2355.000,2357.000,2306.000
2329.000,2330.000,2321.000
2293.000,2269.000,2333.000
2264.000,2281.000,2251.000
2284.000,2256.000,2232.000
2236.000,2264.000,2183.000
2175.000,2209.000,2205.000
2168.000,2189.000,2184.000
2163.000,2184.000,2174.000
2159.000,2146.000,2144.000
2150.000,2122.000,2121.000
2100.000,2131.000,2122.000
2109.000,2119.000,2095.000
2091.000,2099.000,2091.000
2091.000,2087.000,2077.000
2055.000,2080.000,2068.000
2084.000,2058.000,2061.000
2058.000,2041.000,2063.000
2018.000,2044.000,2040.000
2069.000,2056.000,2032.000
2054.000,2062.000,2021.000
1999.000,2027.000,2030.000
2016.000,2006.000,2030.000
2003.000,2009.000,2027.000
2031.000,2030.000,2011.000
1986.000,1966.000,1997.000
2005.000,2032.000,1996.000
2000.000,2008.000,1994.000
2006.000,1996.000,2012.000
2011.000,1989.000,1981.000
1980.000,1982.000,2002.000
1975.000,1957.000,1942.000
1956.000,1943.000,1965.000
1961.000,1959.000,1947.000
1961.000,1964.000,1927.000
1919.000,1920.000,1952.000
1947.000,1926.000,1913.000
1902.000,1939.000,1910.000
1945.000,1931.000,1903.000
1941.000,1909.000,1916.000
1914.000,1918.000,1909.000
1920.000,1935.000,1907.000
1890.000,1912.000,1907.000
1920.000,1858.000,1899.000
1902.000,1880.000,1897.000
1914.000,1878.000,1886.000
1902.000,1898.000,1918.000
1908.000,1909.000,1897.000
1917.000,1889.000,1929.000
1913.000,1918.000,1899.000
1900.000,1894.000,1912.000
1914.000,1889.000,1880.000
1895.000,1896.000,1892.000
1904.000,1904.000,1918.000
1914.000,1878.000,1879.000
1927.000,1903.000,1884.000
1901.000,1887.000,1882.000
1888.000,1907.000,1873.000
1864.000,1902.000,1911.000
1903.000,1895.000,1889.000
1894.000,1872.000,1902.000
1878.000,1890.000,1882.000
1897.000,1873.000,1905.000
1921.000,1897.000,1906.000
1878.000,1911.000,1900.000
1904.000,1880.000,1927.000
1894.000,1900.000,1897.000
1897.000,1897.000,1918.000
1920.000,1900.000,1911.000
1925.000,1891.000,1911.000
1914.000,1922.000,1882.000
1924.000,1913.000,1938.000
1906.000,1898.000,1895.000
1892.000,1893.000,1907.000
1940.000,1935.000,1919.000
1927.000,1915.000,1938.000
1941.000,1890.000,1920.000
1914.000,1945.000,1933.000
1915.000,1925.000,1936.000
1928.000,1937.000,1914.000
1907.000,1922.000,1902.000
1928.000,1923.000,1917.000
1920.000,1927.000,1944.000
1953.000,1948.000,1943.000
1939.000,1924.000,1934.000
1963.000,1955.000,1931.000
1955.000,1940.000,1972.000
1973.000,1969.000,1971.000
1966.000,1997.000,1985.000
1965.000,2003.000,1980.000
1980.000,1975.000,1960.000
1975.000,1974.000,1993.000
1987.000,1972.000,1961.000
2024.000,1979.000,1988.000
1985.000,2009.000,2013.000
2006.000,1998.000,1994.000
1995.000,1979.000,2007.000
2021.000,2030.000,2011.000
2021.000,2040.000,2002.000
2066.000,2030.000,2026.000
2020.000,2032.000,2042.000
2037.000,2063.000,2037.000
2025.000,2048.000,2033.000
2054.000,2049.000,2056.000
2101.000,2094.000,2078.000
2078.000,2093.000,2075.000
2089.000,2096.000,2073.000
2080.000,2076.000,2097.000
2126.000,2111.000,2097.000
2102.000,2125.000,2111.000
2093.000,2108.000,2118.000
2096.000,2114.000,2114.000
2131.000,2147.000,2135.000
2163.000,2135.000,2154.000
2153.000,2161.000,2133.000
2166.000,2168.000,2176.000
2176.000,2200.000,2132.000
2187.000,2171.000,2156.000
2188.000,2228.000,2209.000
2208.000,2236.000,2208.000
2228.000,2228.000,2233.000
2240.000,2268.000,2246.000
2262.000,2264.000,2259.000
2292.000,2285.000,2299.000
2293.000,2325.000,2295.000
2321.000,2320.000,2311.000
2320.000,2326.000,2331.000
2355.000,2352.000,2354.000
2397.000,2410.000,2393.000
2412.000,2461.000,2446.000
2501.000,2492.000,2493.000
2530.000,2570.000,2535.000
2581.000,2596.000,2609.000
2653.000,2661.000,2640.000
2695.000,2720.000,2656.000
2784.000,2775.000,2757.000
2893.000,2836.000,2838.000
2936.000,2949.000,2938.000
2953.000,2933.000,2955.000
2967.000,3012.000,3029.000
2976.000,3003.000,2977.000
3051.000,3075.000,3053.000
3010.000,3042.000,3056.000
3072.000,3090.000,3037.000
3038.000,3047.000,2988.000
3048.000,3049.000,3024.000
3054.000,3005.000,2985.000
2961.000,2930.000,2939.000
2911.000,2864.000,2878.000
2832.000,2865.000,2848.000
2806.000,2774.000,2789.000
2725.000,2735.000,2730.000
2725.000,2666.000,2662.000
2644.000,2648.000,2661.000
2588.000,2614.000,2593.000
2603.000,2576.000,2552.000
2513.000,2504.000,2468.000
2484.000,2466.000,2486.000
2443.000,2433.000,2433.000
2395.000,2407.000,2421.000
2383.000,2397.000,2390.000
2363.000,2365.000,2321.000
2309.000,2331.000,2319.000
2313.000,2310.000,2326.000
2287.000,2332.000,2293.000
2316.000,2314.000,2267.000
2252.000,2271.000,2250.000
2291.000,2279.000,2254.000
2286.000,2237.000,2236.000
2254.000,2240.000,2244.000
2249.000,2284.000,2272.000
2270.000,2241.000,2269.000
2248.000,2224.000,2263.000
2228.000,2218.000,2241.000
2218.000,2265.000,2228.000
2247.000,2232.000,2249.000
2230.000,2252.000,2220.000
2250.000,2220.000,2220.000
2246.000,2232.000,2259.000
2191.000,2198.000,2192.000
2226.000,2230.000,2200.000
2186.000,2210.000,2232.000
2227.000,2200.000,2182.000
2201.000,2187.000,2163.000
2206.000,2223.000,2201.000
2177.000,2182.000,2166.000
2200.000,2190.000,2161.000
2140.000,2186.000,2145.000
2187.000,2186.000,2155.000
2146.000,2195.000,2126.000
2167.000,2158.000,2177.000
2153.000,2141.000,2153.000
2166.000,2177.000,2155.000
2124.000,2114.000,2141.000
2167.000,2155.000,2152.000
2191.000,2163.000,2131.000
2149.000,2174.000,2141.000
2152.000,2144.000,2176.000
2168.000,2163.000,2162.000
2188.000,2139.000,2160.000
2183.000,2141.000,2144.000
2168.000,2181.000,2145.000
2162.000,2151.000,2160.000
2167.000,2188.000,2140.000
2169.000,2147.000,2184.000
2135.000,2155.000,2136.000
2153.000,2152.000,2139.000
2148.000,2147.000,2154.000
2144.000,2114.000,2162.000
2160.000,2149.000,2130.000
2137.000,2170.000,2168.000
2126.000,2161.000,2134.000
2144.000,2158.000,2125.000
2133.000,2148.000,2139.000
2164.000,2141.000,2138.000
2143.000,2119.000,2147.000
2132.000,2139.000,2116.000
2142.000,2164.000,2124.000
2166.000,2145.000,2136.000
2150.000,2141.000,2163.000
2161.000,2132.000,2168.000
2164.000,2145.000,2173.000
2179.000,2151.000,2158.000
2162.000,2147.000,2175.000
2153.000,2146.000,2175.000
2168.000,2154.000,2157.000
2190.000,2154.000,2163.000
2178.000,2175.000,2177.000
2166.000,2169.000,2183.000
2168.000,2161.000,2195.000
2169.000,2189.000,2166.000
2190.000,2172.000,2145.000
2172.000,2211.000,2193.000
2200.000,2183.000,2157.000
2203.000,2195.000,2187.000
2207.000,2186.000,2209.000
2223.000,2205.000,2241.000
2216.000,2258.000,2220.000
2223.000,2277.000,2213.000
2233.000,2238.000,2255.000
2269.000,2236.000,2198.000
2237.000,2285.000,2258.000
2281.000,2286.000,2275.000
2266.000,2303.000,2317.000
2298.000,2255.000,2290.000
2333.000,2297.000,2309.000
2338.000,2303.000,2342.000
2296.000,2333.000,2334.000
2310.000,2344.000,2336.000
2330.000,2364.000,2319.000
2346.000,2370.000,2351.000
2394.000,2333.000,2333.000
2334.000,2367.000,2351.000
2343.000,2369.000,2339.000
2311.000,2391.000,2343.000
2346.000,2397.000,2313.000
2368.000,2339.000,2330.000
2327.000,2358.000,2364.000
2345.000,2355.000,2338.000
2356.000,2334.000,2376.000
2349.000,2361.000,2368.000
2376.000,2392.000,2354.000
2320.000,2380.000,2369.000
2377.000,2387.000,2359.000
2379.000,2393.000,2389.000
2367.000,2386.000,2376.000
2379.000,2419.000,2406.000
2403.000,2402.000,2370.000
2407.000,2411.000,2407.000
2378.000,2414.000,2375.000
2428.000,2423.000,2430.000
2435.000,2414.000,2415.000
2438.000,2457.000,2441.000
2457.000,2451.000,2461.000
2421.000,2447.000,2423.000
2466.000,2468.000,2475.000
2474.000,2493.000,2468.000
2470.000,2457.000,2468.000
2492.000,2476.000,2483.000
2486.000,2505.000,2506.000
2504.000,2528.000,2510.000
2512.000,2505.000,2464.000
2509.000,2535.000,2520.000
2537.000,2539.000,2543.000
2541.000,2527.000,2490.000
2543.000,2570.000,2565.000
2593.000,2574.000,2538.000
2553.000,2582.000,2550.000
2603.000,2588.000,2583.000
2631.000,2607.000,2597.000
2606.000,2585.000,2608.000
2594.000,2633.000,2611.000
2642.000,2637.000,2598.000
2659.000,2642.000,2601.000
2714.000,2724.000,2623.000
2700.000,2697.000,2684.000
2726.000,2680.000,2655.000
2711.000,2703.000,2695.000
2757.000,2739.000,2732.000
2738.000,2728.000,2733.000
2761.000,2788.000,2768.000
2828.000,2806.000,2827.000
2835.000,2831.000,2858.000
2878.000,2882.000,2902.000
2900.000,2910.000,2879.000
2961.000,2993.000,2911.000
3016.000,2960.000,2965.000
3008.000,3086.000,3025.000
3081.000,3074.000,3055.000
3161.000,3168.000,3188.000
3238.000,3260.000,3312.000
3307.000,3306.000,3311.000
3447.000,3451.000,3415.000
3453.000,3543.000,3483.000
3622.000,3662.000,3689.000
3784.000,3805.000,3803.000
3962.000,3898.000,3954.000
4102.000,4137.000,4183.000
4276.000,4259.000,4303.000
4416.000,4389.000,4398.000
4502.000,4550.000,4591.000
4609.000,4632.000,4607.000
4755.000,4715.000,4701.000
4738.000,4831.000,4834.000
4725.000,4791.000,4822.000
4716.000,4700.000,4651.000
4600.000,4632.000,4611.000
4499.000,4524.000,4508.000
4263.000,4236.000,4324.000
4165.000,4164.000,4120.000
3880.000,3918.000,3882.000
3707.000,3723.000,3709.000
3585.000,3516.000,3560.000
3424.000,3437.000,3468.000
3282.000,3284.000,3343.000
3192.000,3180.000,3213.000
3033.000,3097.000,3092.000
2947.000,2978.000,3028.000
2915.000,2931.000,2933.000
2846.000,2878.000,2849.000
2809.000,2859.000,2850.000
2792.000,2818.000,2799.000
2786.000,2769.000,2789.000
2789.000,2765.000,2755.000
2752.000,2770.000,2739.000
2738.000,2710.000,2770.000
2760.000,2748.000,2761.000
2773.000,2752.000,2776.000
2747.000,2730.000,2780.000
2805.000,2805.000,2834.000
2826.000,2826.000,2795.000
2839.000,2828.000,2807.000
2869.000,2859.000,2836.000
2795.000,2839.000,2814.000
2823.000,2867.000,2784.000
2862.000,2822.000,2765.000
2781.000,2801.000,2793.000
2750.000,2808.000,2740.000
2772.000,2742.000,2707.000
2739.000,2688.000,2649.000
2677.000,2655.000,2677.000
2678.000,2595.000,2636.000
2571.000,2602.000,2620.000
2555.000,2520.000,2525.000
2495.000,2479.000,2475.000
2450.000,2443.000,2475.000
2400.000,2386.000,2419.000
2350.000,2327.000,2333.000
2336.000,2279.000,2314.000
2265.000,2312.000,2285.000
2255.000,2251.000,2262.000
2253.000,2256.000,2267.000
2254.000,2238.000,2256.000
2229.000,2237.000,2184.000
2197.000,2177.000,2175.000
2182.000,2178.000,2140.000
2199.000,2153.000,2141.000
2121.000,2144.000,2151.000
2144.000,2156.000,2146.000
2098.000,2122.000,2124.000
2126.000,2107.000,2080.000
2123.000,2127.000,2104.000
2074.000,2111.000,2060.000
2090.000,2096.000,2096.000
2070.000,2071.000,2048.000
2082.000,2067.000,2092.000
2069.000,2075.000,2080.000
2055.000,2064.000,2067.000
2064.000,2055.000,2065.000
2063.000,2050.000,2014.000
2053.000,2049.000,2043.000
2031.000,2023.000,2014.000
2042.000,2028.000,2025.000
2042.000,2004.000,2017.000
2016.000,1991.000,1988.000
2013.000,2027.000,2010.000
1987.000,1985.000,1988.000
2009.000,1968.000,1970.000
1999.000,1972.000,1993.000
1984.000,1958.000,1967.000
1973.000,1968.000,1966.000
1968.000,1948.000,1939.000
1965.000,1960.000,1952.000
1960.000,1939.000,1939.000
1948.000,1953.000,1955.000
1932.000,1909.000,1948.000
1934.000,1931.000,1938.000
1907.000,1923.000,1915.000
1919.000,1914.000,1883.000
1901.000,1884.000,1892.000
1919.000,1921.000,1914.000
1897.000,1891.000,1915.000
1923.000,1882.000,1894.000
1889.000,1872.000,1882.000
1901.000,1864.000,1889.000
1859.000,1891.000,1882.000
1871.000,1832.000,1879.000
1863.000,1860.000,1857.000
1867.000,1873.000,1861.000
1844.000,1877.000,1861.000
1854.000,1863.000,1835.000
1817.000,1827.000,1840.000
1853.000,1847.000,1852.000
1849.000,1869.000,1837.000
1837.000,1871.000,1837.000
1845.000,1820.000,1834.000
1809.000,1826.000,1848.000
1827.000,1862.000,1849.000
1841.000,1832.000,1839.000
1846.000,1834.000,1828.000
1824.000,1843.000,1824.000
1854.000,1836.000,1840.000
1821.000,1820.000,1837.000
1805.000,1820.000,1838.000
1809.000,1847.000,1841.000
1822.000,1852.000,1795.000
1804.000,1821.000,1836.000
1804.000,1851.000,1829.000
1804.000,1813.000,1827.000
1827.000,1816.000,1832.000
1792.000,1806.000,1834.000
1839.000,1822.000,1828.000
1815.000,1809.000,1803.000
1823.000,1816.000,1824.000
1818.000,1795.000,1825.000
1799.000,1802.000,1797.000
1787.000,1781.000,1787.000
1807.000,1777.000,1794.000
1788.000,1793.000,1787.000
1776.000,1794.000,1775.000
1791.000,1802.000,1803.000
1803.000,1789.000,1760.000
1784.000,1796.000,1786.000
1798.000,1788.000,1794.000
1778.000,1765.000,1767.000
1764.000,1771.000,1746.000
1768.000,1774.000,1752.000
1755.000,1772.000,1783.000
1779.000,1769.000,1751.000
1780.000,1773.000,1765.000
1755.000,1744.000,1767.000
1749.000,1755.000,1759.000
1768.000,1749.000,1737.000
1757.000,1741.000,1767.000
1763.000,1729.000,1764.000
1746.000,1741.000,1746.000
1737.000,1746.000,1756.000
1775.000,1734.000,1752.000
1770.000,1749.000,1718.000
1761.000,1761.000,1741.000
1766.000,1754.000,1751.000
1756.000,1760.000,1731.000
1764.000,1745.000,1731.000
1765.000,1748.000,1769.000
1729.000,1737.000,1743.000
1733.000,1735.000,1749.000
1747.000,1749.000,1756.000
1762.000,1771.000,1739.000
1769.000,1744.000,1739.000
1767.000,1749.000,1744.000
1764.000,1741.000,1720.000
1743.000,1746.000,1739.000
1763.000,1756.000,1767.000
1756.000,1767.000,1749.000
1750.000,1755.000,1757.000
1764.000,1764.000,1767.000
1758.000,1750.000,1741.000
1736.000,1759.000,1744.000
1757.000,1755.000,1732.000
1769.000,1779.000,1748.000
1761.000,1757.000,1750.000
1750.000,1756.000,1734.000
1747.000,1760.000,1748.000
1745.000,1732.000,1744.000
1748.000,1738.000,1739.000
1744.000,1735.000,1706.000
1787.000,1752.000,1746.000
1754.000,1747.000,1749.000
1742.000,1728.000,1767.000
1726.000,1722.000,1728.000
1741.000,1731.000,1727.000
1730.000,1729.000,1730.000
1712.000,1721.000,1737.000
1721.000,1742.000,1729.000
1726.000,1729.000,1722.000
1723.000,1724.000,1744.000
1733.000,1743.000,1715.000
1749.000,1740.000,1731.000
1720.000,1733.000,1730.000
1717.000,1738.000,1734.000
1738.000,1750.000,1703.000
1716.000,1755.000,1726.000
1705.000,1722.000,1720.000
1740.000,1717.000,1725.000
1726.000,1726.000,1730.000
1728.000,1723.000,1733.000
1722.000,1732.000,1712.000
1736.000,1708.000,1734.000
1720.000,1711.000,1728.000
1731.000,1736.000,1730.000
1746.000,1731.000,1727.000
1717.000,1725.000,1737.000
1750.000,1723.000,1713.000
1744.000,1735.000,1731.000
1710.000,1708.000,1713.000
1716.000,1712.000,1730.000
1715.000,1736.000,1734.000
1714.000,1722.000,1721.000
1711.000,1714.000,1701.000
1712.000,1722.000,1711.000
1728.000,1717.000,1727.000
1717.000,1717.000,1722.000
1738.000,1699.000,1716.000
1705.000,1703.000,1709.000
1694.000,1705.000,1701.000
1702.000,1703.000,1687.000
1704.000,1683.000,1675.000
1698.000,1696.000,1682.000
1704.000,1680.000,1698.000
1673.000,1700.000,1676.000
1691.000,1692.000,1658.000
1706.000,1682.000,1688.000
1691.000,1709.000,1668.000
1710.000,1702.000,1704.000
1684.000,1662.000,1704.000
1705.000,1691.000,1675.000
1680.000,1676.000,1656.000
1704.000,1693.000,1680.000
1715.000,1704.000,1687.000
1689.000,1673.000,1695.000
1689.000,1691.000,1690.000
1682.000,1704.000,1688.000
1691.000,1690.000,1686.000
1687.000,1711.000,1673.000
1666.000,1691.000,1707.000
1698.000,1685.000,1680.000
1691.000,1687.000,1699.000
1679.000,1689.000,1698.000
1690.000,1665.000,1696.000
1660.000,1704.000,1667.000
1685.000,1666.000,1685.000
1662.000,1673.000,1695.000
1673.000,1656.000,1659.000
1661.000,1686.000,1665.000
1677.000,1679.000,1667.000
1679.000,1665.000,1652.000
1655.000,1679.000,1680.000
1642.000,1673.000,1665.000
1669.000,1670.000,1663.000
1652.000,1671.000,1667.000
1641.000,1652.000,1656.000
1637.000,1646.000,1650.000
1640.000,1634.000,1640.000
1672.000,1642.000,1643.000
1649.000,1646.000,1630.000
1635.000,1648.000,1632.000
1640.000,1643.000,1656.000
1647.000,1649.000,1657.000
1640.000,1650.000,1642.000
1654.000,1658.000,1650.000
1639.000,1660.000,1675.000
1635.000,1647.000,1656.000
1646.000,1642.000,1649.000
1643.000,1665.000,1645.000
1645.000,1653.000,1651.000
1657.000,1638.000,1656.000
1645.000,1656.000,1665.000
1649.000,1653.000,1650.000
1663.000,1643.000,1652.000
1635.000,1656.000,1646.000
1639.000,1640.000,1665.000
1640.000,1623.000,1652.000
1637.000,1633.000,1637.000
1630.000,1645.000,1623.000
1638.000,1649.000,1633.000
1630.000,1637.000,1617.000
1629.000,1634.000,1642.000
1648.000,1635.000,1605.000
1621.000,1617.000,1632.000
1648.000,1648.000,1647.000
1625.000,1603.000,1623.000
1625.000,1615.000,1594.000
1633.000,1624.000,1606.000
1625.000,1631.000,1615.000
1606.000,1622.000,1632.000
1614.000,1615.000,1602.000
1605.000,1591.000,1609.000
1595.000,1615.000,1621.000
1613.000,1597.000,1607.000
1607.000,1579.000,1585.000
1628.000,1584.000,1609.000
1602.000,1591.000,1592.000
1594.000,1590.000,1630.000
1582.000,1576.000,1584.000
1593.000,1598.000,1587.000
1585.000,1608.000,1595.000
1581.000,1600.000,1603.000
1606.000,1588.000,1598.000
1564.000,1577.000,1585.000
1574.000,1594.000,1579.000
1567.000,1585.000,1589.000
1591.000,1577.000,1570.000
1598.000,1589.000,1576.000
1583.000,1586.000,1588.000
1598.000,1583.000,1584.000
1571.000,1582.000,1570.000
1591.000,1586.000,1601.000
1572.000,1565.000,1587.000
1573.000,1571.000,1572.000
1584.000,1568.000,1568.000
1580.000,1606.000,1562.000
1573.000,1579.000,1578.000
1573.000,1575.000,1576.000
1592.000,1587.000,1596.000
1600.000,1572.000,1580.000
1583.000,1557.000,1562.000
1576.000,1563.000,1567.000
1569.000,1583.000,1561.000
1580.000,1575.000,1562.000
1562.000,1590.000,1571.000
1560.000,1579.000,1566.000
1582.000,1548.000,1585.000
1569.000,1563.000,1581.000
1568.000,1564.000,1569.000
1576.000,1539.000,1556.000
1556.000,1566.000,1541.000
1558.000,1575.000,1541.000
1550.000,1559.000,1568.000
1565.000,1540.000,1555.000
1543.000,1551.000,1541.000
1566.000,1520.000,1544.000
1535.000,1530.000,1552.000
1538.000,1552.000,1535.000
1539.000,1536.000,1544.000
1541.000,1531.000,1544.000
1550.000,1531.000,1544.000
1545.000,1545.000,1536.000
1513.000,1535.000,1535.000
1551.000,1532.000,1566.000
1526.000,1534.000,1538.000
1520.000,1534.000,1552.000
1533.000,1546.000,1539.000
1539.000,1535.000,1535.000
1534.000,1532.000,1537.000
1547.000,1543.000,1545.000
1548.000,1538.000,1553.000
1546.000,1552.000,1522.000
1534.000,1534.000,1541.000
1564.000,1531.000,1522.000
1541.000,1528.000,1505.000
1547.000,1548.000,1535.000
1534.000,1543.000,1539.000
1538.000,1537.000,1533.000
1535.000,1538.000,1547.000
1554.000,1528.000,1527.000
1532.000,1526.000,1535.000
1536.000,1534.000,1527.000
1516.000,1540.000,1532.000
1537.000,1531.000,1526.000
1510.000,1547.000,1517.000
1532.000,1524.000,1520.000
1516.000,1511.000,1531.000
1511.000,1537.000,1523.000
1528.000,1533.000,1525.000
1492.000,1516.000,1532.000
1514.000,1518.000,1502.000
1509.000,1505.000,1492.000
1507.000,1508.000,1502.000
1516.000,1509.000,1512.000
1502.000,1510.000,1511.000
1507.000,1530.000,1515.000
1507.000,1513.000,1501.000
1509.000,1498.000,1506.000
1510.000,1494.000,1525.000
1514.000,1529.000,1485.000
1515.000,1511.000,1490.000
1528.000,1517.000,1508.000
1530.000,1498.000,1510.000
1512.000,1528.000,1506.000
1511.000,1519.000,1520.000
1511.000,1527.000,1515.000
1507.000,1520.000,1523.000
1490.000,1514.000,1503.000
1494.000,1516.000,1511.000
1508.000,1509.000,1504.000
1529.000,1531.000,1505.000
1508.000,1502.000,1514.000
1511.000,1521.000,1516.000
1514.000,1524.000,1508.000
1499.000,1498.000,1504.000
1515.000,1506.000,1495.000
1502.000,1513.000,1490.000
1503.000,1509.000,1489.000
1525.000,1502.000,1501.000
1489.000,1497.000,1513.000
1506.000,1501.000,1495.000
1517.000,1496.000,1480.000
1497.000,1500.000,1490.000
1511.000,1498.000,1491.000
1498.000,1498.000,1491.000
1495.000,1505.000,1483.000
1491.000,1483.000,1486.000
1480.000,1479.000,1472.000
1488.000,1488.000,1487.000
1473.000,1476.000,1465.000
1484.000,1492.000,1479.000
1489.000,1493.000,1482.000
1486.000,1494.000,1486.000
1488.000,1470.000,1487.000
1481.000,1473.000,1474.000
1482.000,1495.000,1474.000
1499.000,1491.000,1489.000
1478.000,1492.000,1487.000
1486.000,1477.000,1481.000
1480.000,1501.000,1499.000
1499.000,1472.000,1488.000
1490.000,1503.000,1502.000
1465.000,1503.000,1490.000
1476.000,1505.000,1478.000
1490.000,1482.000,1481.000
1472.000,1469.000,1479.000
1495.000,1492.000,1481.000
1487.000,1475.000,1481.000
1488.000,1484.000,1469.000
1472.000,1482.000,1479.000
1480.000,1481.000,1496.000
1483.000,1478.000,1479.000
1485.000,1487.000,1471.000
1480.000,1481.000,1487.000
1481.000,1474.000,1476.000
1479.000,1462.000,1477.000
1496.000,1463.000,1471.000
1486.000,1479.000,1476.000
1468.000,1450.000,1481.000
1480.000,1471.000,1472.000
1484.000,1466.000,1475.000
1459.000,1459.000,1482.000
1456.000,1457.000,1439.000
1466.000,1468.000,1459.000
1459.000,1464.000,1471.000
1446.000,1457.000,1467.000
1483.000,1452.000,1468.000
1448.000,1459.000,1466.000
1444.000,1465.000,1467.000
1462.000,1449.000,1448.000
1444.000,1439.000,1440.000
1451.000,1443.000,1444.000
1456.000,1448.000,1437.000
1450.000,1433.000,1455.000
1436.000,1458.000,1448.000
1445.000,1451.000,1449.000
1457.000,1446.000,1457.000
1466.000,1455.000,1428.000
1436.000,1441.000,1438.000
1455.000,1440.000,1441.000
1439.000,1451.000,1447.000
1437.000,1437.000,1441.000
1438.000,1461.000,1445.000
1445.000,1428.000,1443.000
1440.000,1447.000,1456.000
1444.000,1446.000,1471.000
1451.000,1436.000,1439.000
1446.000,1431.000,1453.000
1451.000,1438.000,1447.000
1432.000,1426.000,1435.000
1436.000,1459.000,1445.000
1441.000,1440.000,1448.000
1449.000,1446.000,1442.000
1427.000,1438.000,1432.000
1438.000,1429.000,1425.000
1446.000,1442.000,1453.000
1436.000,1444.000,1443.000
1454.000,1448.000,1440.000
1440.000,1446.000,1429.000
1445.000,1436.000,1441.000
1434.000,1431.000,1419.000
1419.000,1429.000,1426.000
1441.000,1440.000,1431.000
1435.000,1432.000,1434.000
1438.000,1427.000,1439.000
1440.000,1446.000,1438.000
1433.000,1434.000,1419.000
1411.000,1449.000,1423.000
1419.000,1428.000,1430.000
1425.000,1416.000,1426.000
1419.000,1437.000,1412.000
1412.000,1407.000,1417.000
1418.000,1420.000,1423.000
1429.000,1423.000,1420.000
1411.000,1419.000,1422.000
1423.000,1404.000,1420.000
1410.000,1417.000,1402.000
1433.000,1429.000,1410.000
1438.000,1425.000,1422.000
1415.000,1417.000,1415.000
1410.000,1413.000,1416.000
1423.000,1409.000,1419.000
1428.000,1423.000,1419.000
1410.000,1406.000,1414.000
1410.000,1413.000,1411.000
1418.000,1400.000,1407.000
1413.000,1413.000,1411.000
1409.000,1413.000,1415.000
1411.000,1419.000,1423.000
1421.000,1410.000,1416.000
1410.000,1412.000,1406.000
1426.000,1413.000,1421.000
1426.000,1409.000,1403.000
1441.000,1412.000,1427.000
1407.000,1421.000,1412.000
1404.000,1405.000,1412.000
1418.000,1396.000,1421.000
1420.000,1408.000,1409.000
1407.000,1406.000,1405.000
1414.000,1402.000,1423.000
1410.000,1391.000,1419.000
1406.000,1400.000,1414.000
1411.000,1394.000,1405.000
1404.000,1399.000,1393.000
1384.000,1409.000,1410.000
1399.000,1402.000,1387.000
1406.000,1395.000,1396.000
1403.000,1403.000,1407.000
1397.000,1392.000,1389.000
1404.000,1396.000,1399.000
1400.000,1388.000,1398.000
1405.000,1397.000,1380.000
1378.000,1404.000,1395.000
1387.000,1388.000,1400.000
1400.000,1396.000,1381.000
1392.000,1382.000,1397.000
1381.000,1379.000,1391.000
1398.000,1378.000,1379.000
1380.000,1393.000,1389.000
1396.000,1391.000,1386.000
1385.000,1387.000,1400.000
1371.000,1382.000,1379.000
1392.000,1381.000,1394.000
1368.000,1376.000,1377.000
1374.000,1384.000,1381.000
1381.000,1370.000,1388.000
1373.000,1376.000,1400.000
1382.000,1386.000,1387.000
1379.000,1375.000,1384.000
1379.000,1373.000,1391.000
1382.000,1382.000,1379.000
1376.000,1373.000,1363.000
1370.000,1364.000,1373.000
1374.000,1379.000,1389.000
1372.000,1370.000,1373.000
1389.000,1390.000,1368.000
1389.000,1379.000,1359.000
1390.000,1370.000,1368.000
1388.000,1373.000,1376.000
1364.000,1371.000,1386.000
1371.000,1380.000,1364.000
1363.000,1368.000,1374.000
1393.000,1376.000,1368.000
1373.000,1373.000,1373.000
1359.000,1373.000,1368.000
1373.000,1367.000,1369.000
1371.000,1375.000,1369.000
1362.000,1378.000,1374.000
1367.000,1384.000,1377.000
1371.000,1368.000,1365.000
1383.000,1369.000,1374.000
1374.000,1365.000,1367.000
1359.000,1372.000,1361.000
1369.000,1363.000,1372.000
1381.000,1373.000,1352.000
1359.000,1357.000,1379.000
1360.000,1366.000,1358.000
1345.000,1365.000,1352.000
1361.000,1379.000,1358.000
1365.000,1348.000,1342.000
1352.000,1358.000,1356.000
1357.000,1346.000,1357.000
1349.000,1365.000,1353.000
1360.000,1358.000,1359.000
1345.000,1350.000,1354.000
1355.000,1360.000,1351.000
1355.000,1349.000,1356.000
1345.000,1355.000,1353.000
1354.000,1335.000,1359.000
1348.000,1352.000,1346.000
1337.000,1351.000,1341.000
1353.000,1352.000,1343.000
1347.000,1341.000,1340.000
1338.000,1359.000,1347.000
1341.000,1335.000,1349.000
1343.000,1340.000,1335.000
1341.000,1340.000,1330.000
1346.000,1339.000,1337.000
1351.000,1332.000,1328.000
1339.000,1337.000,1339.000
1340.000,1343.000,1347.000
1342.000,1336.000,1350.000
1324.000,1334.000,1340.000
1334.000,1345.000,1338.000
1341.000,1347.000,1338.000
1344.000,1335.000,1325.000
1336.000,1348.000,1342.000
1342.000,1348.000,1330.000
1345.000,1330.000,1330.000
1344.000,1332.000,1335.000
1333.000,1329.000,1335.000
1331.000,1334.000,1335.000
1331.000,1339.000,1334.000
1341.000,1333.000,1335.000
1332.000,1335.000,1341.000
1326.000,1323.000,1335.000
1339.000,1327.000,1319.000
1326.000,1322.000,1335.000
1330.000,1329.000,1332.000
1319.000,1331.000,1327.000
1332.000,1326.000,1336.000
1322.000,1319.000,1333.000
1330.000,1325.000,1335.000
1319.000,1319.000,1324.000
1315.000,1324.000,1322.000
1334.000,1329.000,1319.000
1323.000,1331.000,1328.000
1324.000,1327.000,1327.000
1315.000,1323.000,1324.000
1315.000,1327.000,1314.000
1319.000,1328.000,1326.000
1298.000,1318.000,1314.000
