Focus Mode,Read Mode,Exposure Time (sec),Number of Frames,Start Y,End Y,Date,Time,Position (microns)
Single Acquisition,Spectrum,20.000000,3,105,125,12/11/2020,4:19:23 PM,0.000000,0.000000,19.990000,

1304.000,1310.000,1311.000
1295.000,1317.000,1306.000
1308.000,1307.000,1298.000
1299.000,1298.000,1306.000
1311.000,1312.000,1306.000
1304.000,1309.000,1308.000
1315.000,1303.000,1305.000
1305.000,1305.000,1300.000
1296.000,1310.000,1293.000
1311.000,1310.000,1300.000
1307.000,1302.000,1302.000
1303.000,1297.000,1313.000
1299.000,1300.000,1310.000
1307.000,1303.000,1307.000
1309.000,1295.000,1304.000
1300.000,1307.000,1316.000
1302.000,1311.000,1315.000
1304.000,1305.000,1312.000
1306.000,1311.000,1311.000
1308.000,1306.000,1313.000
1308.000,1312.000,1309.000
1314.000,1331.000,1307.000
1306.000,1310.000,1316.000
1321.000,1322.000,1322.000
1319.000,1327.000,1324.000
1333.000,1326.000,1330.000
1322.000,1335.000,1320.000
1323.000,1331.000,1339.000
1314.000,1338.000,1333.000
1333.000,1345.000,1337.000
1344.000,1339.000,1333.000
1348.000,1351.000,1343.000
1356.000,1345.000,1350.000
1352.000,1345.000,1354.000
1354.000,1365.000,1359.000
1372.000,1359.000,1359.000
1366.000,1359.000,1368.000
1374.000,1386.000,1376.000
1372.000,1373.000,1381.000
1384.000,1391.000,1398.000
1381.000,1388.000,1385.000
1402.000,1399.000,1396.000
1397.000,1400.000,1398.000
1405.000,1417.000,1419.000
1417.000,1424.000,1422.000
1423.000,1427.000,1459.000
1430.000,1460.000,1462.000
1427.000,1460.000,1453.000
1466.000,1465.000,1472.000
1456.000,1467.000,1465.000
1466.000,1466.000,1470.000
1490.000,1491.000,1510.000
1492.000,1502.000,1513.000
1509.000,1517.000,1512.000
1514.000,1514.000,1539.000
1541.000,1520.000,1548.000
1529.000,1549.000,1556.000
1540.000,1538.000,1549.000
1518.000,1540.000,1547.000
1510.000,1525.000,1515.000
1511.000,1505.000,1510.000
1489.000,1512.000,1500.000
1470.000,1480.000,1507.000
1479.000,1503.000,1501.000
1505.000,1503.000,1495.000
1525.000,1528.000,1541.000
1547.000,1550.000,1573.000
1573.000,1601.000,1611.000
1612.000,1622.000,1640.000
1671.000,1691.000,1675.000
1689.000,1723.000,1716.000
1702.000,1717.000,1756.000
1738.000,1741.000,1774.000
1770.000,1757.000,1782.000
1772.000,1813.000,1818.000
1776.000,1768.000,1811.000
1794.000,1806.000,1818.000
1799.000,1836.000,1818.000
1788.000,1843.000,1845.000
1814.000,1825.000,1800.000
1837.000,1831.000,1848.000
1816.000,1834.000,1855.000
1807.000,1844.000,1860.000
1838.000,1841.000,1874.000
1838.000,1842.000,1870.000
1865.000,1879.000,1893.000
1855.000,1894.000,1891.000
1863.000,1883.000,1878.000
1843.000,1901.000,1915.000
1869.000,1885.000,1916.000
1878.000,1929.000,1908.000
1959.000,1930.000,1931.000
1969.000,1953.000,1970.000
2000.000,2022.000,2016.000
2007.000,2034.000,2070.000
2061.000,2069.000,2099.000
2106.000,2150.000,2142.000
2195.000,2189.000,2225.000
2315.000,2264.000,2309.000
2384.000,2400.000,2410.000
2532.000,2559.000,2525.000
2642.000,2685.000,2718.000
2769.000,2831.000,2834.000
2868.000,2941.000,2950.000
3000.000,3026.000,3065.000
3095.000,3182.000,3167.000
3127.000,3181.000,3173.000
3175.000,3226.000,3222.000
3178.000,3247.000,3264.000
3143.000,3217.000,3231.000
3143.000,3202.000,3196.000
3178.000,3206.000,3176.000
3103.000,3164.000,3170.000
3075.000,3143.000,3147.000
3063.000,3120.000,3149.000
3142.000,3155.000,3187.000
3184.000,3235.000,3256.000
3296.000,3415.000,3407.000
3470.000,3474.000,3563.000
3757.000,3820.000,3828.000
4227.000,4313.000,4426.000
5094.000,5189.000,5259.000
6911.000,7209.000,7200.000
12114.000,12684.000,12519.000
65483.000,64932.000,62072.000
61632.000,61528.000,61998.000
62091.000,62070.000,62061.000
62011.000,62005.000,61987.000
62017.000,62018.000,62007.000
62014.000,62008.000,62007.000
61979.000,61978.000,61972.000
61980.000,61977.000,61979.000
61986.000,61982.000,61984.000
61974.000,61969.000,61976.000
61972.000,61967.000,61968.000
61975.000,61970.000,61972.000
61969.000,61971.000,61976.000
61970.000,61967.000,61974.000
61963.000,61962.000,61973.000
61965.000,61967.000,61969.000
61970.000,61962.000,61968.000
61967.000,61960.000,61971.000
61963.000,61967.000,61970.000
61967.000,61960.000,61965.000
61969.000,61960.000,61968.000
61967.000,61964.000,61965.000
61964.000,61955.000,61964.000
61965.000,61956.000,61965.000
61963.000,61960.000,61968.000
61966.000,61960.000,61962.000
61967.000,61963.000,61966.000
61964.000,61956.000,61963.000
61962.000,61961.000,61964.000
61964.000,61962.000,61967.000
61965.000,61959.000,61964.000
61964.000,61961.000,61966.000
61961.000,61960.000,61960.000
61965.000,61966.000,61968.000
61966.000,61958.000,61967.000
61966.000,61958.000,61964.000
61964.000,61959.000,61962.000
61967.000,61958.000,61968.000
61962.000,61959.000,61965.000
61967.000,61955.000,61971.000
61966.000,61963.000,61960.000
61962.000,61954.000,61976.000
61964.000,61964.000,61965.000
61965.000,61959.000,61968.000
61961.000,61954.000,61965.000
61963.000,61960.000,61966.000
61966.000,61963.000,61961.000
61970.000,61960.000,61967.000
61959.000,61962.000,61966.000
61959.000,61962.000,61962.000
61964.000,61968.000,61964.000
61963.000,61965.000,61973.000
61980.000,61981.000,61972.000
62008.000,62010.000,61987.000
65507.000,58626.000,62017.000
1662.000,1644.000,48257.000
1560.000,1557.000,1620.000
1536.000,1543.000,1537.000
1520.000,1518.000,1531.000
1483.000,1519.000,1509.000
1504.000,1495.000,1507.000
1502.000,1475.000,1502.000
1469.000,1468.000,1496.000
1469.000,1474.000,1477.000
1455.000,1446.000,1465.000
1457.000,1456.000,1450.000
1451.000,1454.000,1460.000
1450.000,1448.000,1457.000
1456.000,1448.000,1439.000
1426.000,1424.000,1422.000
1436.000,1428.000,1428.000
1425.000,1425.000,1412.000
1423.000,1418.000,1429.000
1432.000,1416.000,1440.000
1414.000,1402.000,1433.000
1408.000,1402.000,1403.000
1399.000,1406.000,1417.000
1406.000,1395.000,1423.000
1396.000,1405.000,1413.000
1401.000,1392.000,1398.000
1389.000,1390.000,1386.000
1392.000,1380.000,1382.000
1381.000,1394.000,1398.000
1372.000,1389.000,1380.000
1373.000,1381.000,1377.000
1380.000,1373.000,1369.000
1378.000,1366.000,1375.000
1358.000,1369.000,1373.000
1369.000,1376.000,1366.000
1364.000,1365.000,1373.000
1363.000,1364.000,1368.000
1370.000,1360.000,1362.000
1357.000,1357.000,1354.000
1352.000,1349.000,1348.000
1360.000,1360.000,1370.000
1350.000,1350.000,1364.000
1341.000,1337.000,1347.000
1338.000,1344.000,1353.000
1338.000,1338.000,1344.000
1353.000,1351.000,1344.000
1339.000,1342.000,1338.000
1350.000,1342.000,1351.000
1334.000,1335.000,1344.000
1336.000,1329.000,1335.000
1321.000,1339.000,1336.000
1327.000,1326.000,1324.000
1334.000,1322.000,1335.000
1340.000,1331.000,1326.000
1324.000,1320.000,1340.000
1317.000,1336.000,1332.000
1315.000,1326.000,1326.000
1316.000,1332.000,1318.000
1322.000,1325.000,1324.000
1332.000,1325.000,1325.000
1315.000,1311.000,1319.000
1321.000,1307.000,1322.000
1327.000,1313.000,1323.000
1317.000,1320.000,1315.000
1321.000,1310.000,1317.000
1312.000,1310.000,1320.000
1311.000,1320.000,1320.000
1312.000,1312.000,1308.000
1312.000,1296.000,1315.000
1303.000,1307.000,1308.000
1304.000,1319.000,1316.000
1318.000,1294.000,1303.000
1302.000,1305.000,1313.000
1301.000,1303.000,1313.000
1309.000,1299.000,1294.000
1298.000,1299.000,1307.000
1298.000,1307.000,1298.000
1308.000,1300.000,1309.000
1301.000,1295.000,1300.000
1298.000,1299.000,1303.000
1299.000,1304.000,1289.000
1296.000,1303.000,1295.000
1300.000,1306.000,1295.000
1297.000,1295.000,1292.000
1294.000,1306.000,1300.000
1304.000,1302.000,1293.000
1299.000,1295.000,1297.000
1291.000,1291.000,1303.000
1306.000,1285.000,1292.000
1294.000,1290.000,1299.000
1285.000,1293.000,1289.000
1294.000,1288.000,1286.000
1274.000,1291.000,1299.000
1299.000,1288.000,1285.000
1286.000,1288.000,1293.000
1283.000,1291.000,1296.000
1287.000,1291.000,1291.000
1291.000,1289.000,1287.000
1295.000,1292.000,1288.000
1291.000,1288.000,1278.000
1294.000,1267.000,1289.000
1277.000,1293.000,1275.000
1275.000,1294.000,1291.000
1287.000,1290.000,1286.000
1279.000,1274.000,1284.000
1276.000,1284.000,1286.000
1279.000,1281.000,1286.000
1288.000,1284.000,1271.000
1274.000,1281.000,1280.000
1284.000,1287.000,1277.000
1286.000,1276.000,1277.000
1281.000,1278.000,1273.000
1279.000,1285.000,1274.000
1283.000,1274.000,1280.000
1275.000,1283.000,1276.000
1274.000,1279.000,1285.000
1290.000,1282.000,1276.000
1285.000,1278.000,1277.000
1283.000,1267.000,1283.000
1278.000,1275.000,1282.000
1280.000,1276.000,1273.000
1274.000,1287.000,1274.000
1288.000,1275.000,1280.000
1289.000,1286.000,1280.000
1290.000,1284.000,1276.000
1280.000,1280.000,1276.000
1277.000,1286.000,1281.000
1292.000,1280.000,1285.000
1294.000,1290.000,1296.000
1300.000,1285.000,1296.000
1293.000,1291.000,1289.000
1300.000,1308.000,1305.000
1312.000,1314.000,1310.000
1301.000,1320.000,1306.000
1330.000,1312.000,1302.000
1325.000,1324.000,1319.000
1330.000,1327.000,1334.000
1335.000,1336.000,1338.000
1334.000,1351.000,1340.000
1352.000,1349.000,1360.000
1376.000,1376.000,1371.000
1365.000,1386.000,1369.000
1396.000,1386.000,1399.000
1412.000,1403.000,1416.000
1414.000,1410.000,1429.000
1428.000,1445.000,1424.000
1459.000,1442.000,1434.000
1449.000,1445.000,1435.000
1452.000,1459.000,1463.000
1454.000,1455.000,1468.000
1466.000,1467.000,1468.000
1477.000,1454.000,1456.000
1453.000,1459.000,1460.000
1474.000,1474.000,1470.000
1461.000,1446.000,1466.000
1459.000,1453.000,1479.000
1450.000,1455.000,1455.000
1455.000,1461.000,1464.000
1468.000,1450.000,1448.000
1454.000,1451.000,1448.000
1461.000,1436.000,1457.000
1433.000,1461.000,1439.000
1440.000,1451.000,1444.000
1428.000,1439.000,1435.000
1435.000,1436.000,1438.000
1429.000,1442.000,1430.000
1439.000,1431.000,1440.000
1411.000,1436.000,1435.000
1419.000,1429.000,1433.000
1441.000,1422.000,1415.000
1430.000,1425.000,1426.000
1416.000,1416.000,1435.000
1412.000,1409.000,1409.000
1400.000,1416.000,1414.000
1415.000,1428.000,1415.000
1401.000,1401.000,1399.000
1405.000,1400.000,1399.000
1401.000,1396.000,1398.000
1418.000,1404.000,1408.000
1390.000,1390.000,1392.000
1389.000,1403.000,1399.000
1402.000,1387.000,1386.000
1385.000,1395.000,1393.000
1394.000,1377.000,1379.000
1374.000,1383.000,1383.000
1374.000,1375.000,1390.000
1387.000,1384.000,1377.000
1383.000,1390.000,1387.000
1382.000,1366.000,1377.000
1371.000,1384.000,1377.000
1371.000,1367.000,1364.000
1380.000,1366.000,1379.000
1371.000,1390.000,1372.000
1371.000,1367.000,1380.000
1377.000,1374.000,1365.000
1354.000,1371.000,1371.000
1370.000,1368.000,1366.000
1368.000,1376.000,1367.000
1376.000,1362.000,1362.000
1373.000,1368.000,1360.000
1354.000,1372.000,1345.000
1365.000,1377.000,1365.000
1363.000,1374.000,1361.000
1373.000,1376.000,1366.000
1363.000,1378.000,1362.000
1362.000,1361.000,1364.000
1372.000,1365.000,1358.000
1354.000,1360.000,1359.000
1365.000,1363.000,1362.000
1359.000,1371.000,1361.000
1359.000,1362.000,1353.000
1373.000,1364.000,1365.000
1359.000,1372.000,1370.000
1376.000,1361.000,1367.000
1371.000,1361.000,1372.000
1357.000,1361.000,1370.000
1371.000,1366.000,1367.000
1371.000,1361.000,1367.000
1355.000,1362.000,1363.000
1360.000,1358.000,1375.000
1359.000,1372.000,1360.000
1374.000,1360.000,1379.000
1366.000,1359.000,1367.000
1370.000,1365.000,1381.000
1375.000,1367.000,1383.000
1365.000,1370.000,1395.000
1368.000,1362.000,1360.000
1367.000,1370.000,1368.000
1364.000,1380.000,1355.000
1372.000,1382.000,1353.000
1387.000,1380.000,1383.000
1381.000,1380.000,1362.000
1373.000,1381.000,1382.000
1391.000,1375.000,1373.000
1371.000,1377.000,1379.000
1387.000,1375.000,1387.000
1384.000,1382.000,1396.000
1374.000,1379.000,1386.000
1376.000,1396.000,1378.000
1379.000,1391.000,1399.000
1383.000,1386.000,1384.000
1394.000,1387.000,1390.000
1399.000,1375.000,1388.000
1409.000,1396.000,1396.000
1404.000,1406.000,1397.000
1411.000,1404.000,1393.000
1408.000,1415.000,1404.000
1398.000,1402.000,1402.000
1407.000,1408.000,1399.000
1409.000,1409.000,1407.000
1421.000,1416.000,1433.000
1423.000,1435.000,1431.000
1411.000,1441.000,1433.000
1448.000,1433.000,1437.000
1444.000,1449.000,1435.000
1448.000,1455.000,1443.000
1454.000,1446.000,1465.000
1464.000,1457.000,1475.000
1488.000,1460.000,1489.000
1485.000,1480.000,1496.000
1500.000,1506.000,1515.000
1506.000,1502.000,1508.000
1540.000,1524.000,1546.000
1546.000,1543.000,1529.000
1571.000,1573.000,1569.000
1607.000,1575.000,1590.000
1607.000,1642.000,1592.000
1665.000,1680.000,1666.000
1707.000,1693.000,1720.000
1750.000,1748.000,1767.000
1808.000,1819.000,1789.000
1852.000,1838.000,1853.000
1932.000,1915.000,1931.000
1964.000,1956.000,1948.000
2009.000,2025.000,2024.000
2039.000,2096.000,2038.000
2062.000,2053.000,2080.000
2101.000,2088.000,2089.000
2123.000,2147.000,2106.000
2128.000,2076.000,2105.000
2087.000,2117.000,2116.000
2082.000,2084.000,2063.000
2057.000,2042.000,2021.000
2046.000,2011.000,2023.000
1979.000,1980.000,2016.000
1967.000,1964.000,1964.000
1913.000,1917.000,1937.000
1907.000,1894.000,1877.000
1865.000,1904.000,1842.000
1821.000,1804.000,1843.000
1784.000,1792.000,1793.000
1757.000,1770.000,1775.000
1734.000,1710.000,1745.000
1716.000,1697.000,1691.000
1680.000,1686.000,1696.000
1658.000,1640.000,1650.000
1623.000,1633.000,1613.000
1605.000,1608.000,1599.000
1599.000,1578.000,1580.000
1572.000,1548.000,1564.000
1552.000,1549.000,1557.000
1523.000,1529.000,1511.000
1536.000,1505.000,1500.000
1516.000,1508.000,1517.000
1500.000,1497.000,1511.000
1504.000,1456.000,1478.000
1465.000,1481.000,1475.000
1456.000,1461.000,1451.000
1443.000,1444.000,1435.000
1432.000,1444.000,1450.000
1426.000,1431.000,1441.000
1440.000,1426.000,1419.000
1415.000,1415.000,1417.000
1409.000,1394.000,1413.000
1416.000,1403.000,1405.000
1402.000,1399.000,1391.000
1394.000,1391.000,1405.000
1403.000,1377.000,1384.000
1381.000,1394.000,1387.000
1384.000,1398.000,1394.000
1385.000,1381.000,1375.000
1380.000,1371.000,1359.000
1379.000,1378.000,1371.000
1385.000,1378.000,1366.000
1378.000,1378.000,1364.000
1368.000,1367.000,1371.000
1356.000,1365.000,1375.000
1356.000,1374.000,1363.000
1345.000,1357.000,1358.000
1351.000,1367.000,1366.000
1362.000,1363.000,1362.000
1353.000,1353.000,1357.000
1350.000,1350.000,1356.000
1348.000,1347.000,1350.000
1347.000,1351.000,1346.000
1347.000,1349.000,1343.000
1347.000,1333.000,1347.000
1345.000,1335.000,1333.000
1347.000,1344.000,1345.000
1334.000,1355.000,1350.000
1338.000,1349.000,1336.000
1332.000,1336.000,1332.000
1332.000,1333.000,1331.000
1329.000,1340.000,1345.000
1326.000,1341.000,1339.000
1331.000,1339.000,1334.000
1328.000,1334.000,1330.000
1334.000,1323.000,1332.000
1328.000,1345.000,1331.000
1324.000,1325.000,1337.000
1330.000,1331.000,1320.000
1329.000,1327.000,1328.000
1330.000,1317.000,1333.000
1320.000,1321.000,1332.000
1325.000,1331.000,1327.000
1326.000,1324.000,1323.000
1326.000,1323.000,1319.000
1324.000,1331.000,1313.000
1319.000,1322.000,1319.000
1325.000,1323.000,1322.000
1337.000,1326.000,1327.000
1327.000,1328.000,1320.000
1325.000,1315.000,1319.000
1325.000,1322.000,1323.000
1316.000,1321.000,1319.000
1331.000,1327.000,1319.000
1315.000,1327.000,1328.000
1329.000,1322.000,1323.000
1313.000,1325.000,1304.000
1324.000,1319.000,1322.000
1322.000,1330.000,1315.000
1321.000,1321.000,1316.000
1316.000,1321.000,1315.000
1322.000,1320.000,1320.000
1325.000,1324.000,1323.000
1318.000,1315.000,1313.000
1318.000,1323.000,1319.000
1325.000,1313.000,1327.000
1329.000,1330.000,1317.000
1319.000,1322.000,1322.000
1326.000,1330.000,1328.000
1318.000,1319.000,1330.000
1316.000,1319.000,1323.000
1315.000,1323.000,1324.000
1308.000,1313.000,1317.000
1326.000,1321.000,1324.000
1324.000,1316.000,1320.000
1314.000,1321.000,1325.000
1316.000,1321.000,1315.000
1316.000,1314.000,1325.000
1324.000,1319.000,1323.000
1315.000,1326.000,1325.000
1313.000,1318.000,1322.000
1316.000,1324.000,1313.000
1316.000,1316.000,1317.000
1327.000,1313.000,1336.000
1322.000,1316.000,1321.000
1329.000,1324.000,1313.000
1314.000,1326.000,1312.000
1314.000,1319.000,1322.000
1322.000,1314.000,1324.000
1325.000,1317.000,1321.000
1328.000,1326.000,1322.000
1320.000,1315.000,1317.000
1313.000,1318.000,1325.000
1335.000,1314.000,1310.000
1321.000,1318.000,1323.000
1317.000,1325.000,1329.000
1330.000,1319.000,1313.000
1331.000,1327.000,1323.000
1318.000,1330.000,1316.000
1327.000,1328.000,1312.000
1321.000,1321.000,1323.000
1314.000,1318.000,1318.000
1316.000,1323.000,1326.000
1318.000,1317.000,1328.000
1319.000,1325.000,1312.000
1314.000,1318.000,1320.000
1310.000,1326.000,1313.000
1332.000,1319.000,1326.000
1322.000,1324.000,1326.000
1319.000,1329.000,1314.000
1322.000,1313.000,1324.000
1322.000,1323.000,1324.000
1321.000,1328.000,1318.000
1316.000,1315.000,1318.000
1320.000,1317.000,1318.000
1314.000,1317.000,1319.000
1321.000,1318.000,1312.000
1325.000,1323.000,1322.000
1334.000,1320.000,1330.000
1324.000,1330.000,1322.000
1317.000,1315.000,1318.000
1328.000,1326.000,1308.000
1327.000,1309.000,1311.000
1327.000,1308.000,1325.000
1320.000,1323.000,1320.000
1324.000,1316.000,1319.000
1324.000,1315.000,1319.000
1321.000,1315.000,1312.000
1326.000,1328.000,1323.000
1316.000,1323.000,1317.000
1329.000,1329.000,1328.000
1318.000,1313.000,1326.000
1315.000,1328.000,1329.000
1340.000,1319.000,1319.000
1320.000,1319.000,1324.000
1324.000,1329.000,1332.000
1328.000,1328.000,1330.000
1336.000,1326.000,1315.000
1314.000,1342.000,1316.000
1326.000,1320.000,1329.000
1322.000,1319.000,1335.000
1312.000,1318.000,1315.000
1321.000,1327.000,1321.000
1325.000,1334.000,1326.000
1324.000,1333.000,1329.000
1325.000,1327.000,1315.000
1324.000,1321.000,1319.000
1320.000,1313.000,1316.000
1319.000,1337.000,1323.000
1320.000,1325.000,1316.000
1334.000,1323.000,1327.000
1320.000,1320.000,1325.000
1312.000,1318.000,1317.000
1320.000,1321.000,1329.000
1323.000,1318.000,1324.000
1320.000,1336.000,1322.000
1324.000,1320.000,1319.000
1321.000,1327.000,1324.000
1315.000,1327.000,1319.000
1323.000,1333.000,1317.000
1320.000,1310.000,1335.000
1332.000,1323.000,1334.000
1333.000,1322.000,1321.000
1332.000,1315.000,1317.000
1320.000,1323.000,1315.000
1316.000,1326.000,1313.000
1315.000,1325.000,1316.000
1324.000,1327.000,1314.000
1314.000,1318.000,1320.000
1320.000,1323.000,1319.000
1322.000,1329.000,1313.000
1322.000,1319.000,1323.000
1307.000,1314.000,1335.000
1335.000,1319.000,1315.000
1317.000,1320.000,1319.000
1312.000,1319.000,1319.000
1319.000,1314.000,1324.000
1316.000,1321.000,1317.000
1323.000,1320.000,1316.000
1314.000,1317.000,1320.000
1311.000,1318.000,1317.000
1316.000,1313.000,1323.000
1314.000,1316.000,1307.000
1324.000,1317.000,1321.000
1312.000,1319.000,1302.000
1331.000,1326.000,1320.000
1329.000,1320.000,1312.000
1309.000,1310.000,1328.000
1326.000,1323.000,1313.000
1317.000,1315.000,1313.000
1327.000,1319.000,1324.000
1303.000,1311.000,1315.000
1321.000,1315.000,1319.000
1312.000,1317.000,1312.000
1319.000,1318.000,1325.000
1323.000,1322.000,1316.000
1313.000,1323.000,1316.000
1306.000,1323.000,1320.000
1320.000,1310.000,1312.000
1319.000,1327.000,1314.000
1313.000,1327.000,1314.000
1321.000,1317.000,1309.000
1327.000,1314.000,1313.000
1323.000,1329.000,1317.000
1316.000,1319.000,1321.000
1312.000,1311.000,1321.000
1313.000,1315.000,1321.000
1314.000,1311.000,1325.000
1315.000,1316.000,1313.000
1318.000,1315.000,1316.000
1327.000,1313.000,1308.000
1324.000,1311.000,1307.000
1325.000,1325.000,1317.000
1327.000,1322.000,1314.000
1313.000,1328.000,1308.000
1311.000,1314.000,1316.000
1316.000,1313.000,1322.000
1327.000,1315.000,1313.000
1314.000,1315.000,1315.000
1317.000,1307.000,1315.000
1318.000,1323.000,1326.000
1318.000,1311.000,1313.000
1322.000,1316.000,1318.000
1327.000,1311.000,1313.000
1315.000,1314.000,1313.000
1318.000,1313.000,1324.000
1321.000,1322.000,1319.000
1329.000,1317.000,1324.000
1325.000,1320.000,1324.000
1318.000,1321.000,1319.000
1321.000,1324.000,1305.000
1310.000,1314.000,1318.000
1316.000,1318.000,1324.000
1329.000,1310.000,1314.000
1325.000,1324.000,1316.000
1318.000,1321.000,1324.000
1326.000,1324.000,1325.000
1314.000,1323.000,1319.000
1327.000,1318.000,1329.000
1323.000,1330.000,1327.000
1324.000,1314.000,1323.000
1325.000,1326.000,1324.000
1333.000,1335.000,1329.000
1327.000,1324.000,1327.000
1338.000,1335.000,1334.000
1337.000,1324.000,1335.000
1328.000,1330.000,1318.000
1332.000,1323.000,1327.000
1336.000,1333.000,1325.000
1331.000,1327.000,1334.000
1342.000,1331.000,1334.000
1346.000,1331.000,1329.000
1329.000,1337.000,1347.000
1342.000,1341.000,1337.000
1335.000,1343.000,1345.000
1349.000,1334.000,1337.000
1343.000,1344.000,1352.000
1345.000,1342.000,1339.000
1347.000,1346.000,1350.000
1352.000,1347.000,1349.000
1361.000,1352.000,1355.000
1351.000,1351.000,1363.000
1360.000,1360.000,1352.000
1363.000,1363.000,1370.000
1373.000,1346.000,1361.000
1367.000,1367.000,1370.000
1373.000,1369.000,1363.000
1371.000,1385.000,1375.000
1374.000,1390.000,1374.000
1382.000,1388.000,1381.000
1384.000,1383.000,1382.000
1387.000,1387.000,1377.000
1397.000,1395.000,1417.000
1396.000,1390.000,1403.000
1405.000,1397.000,1403.000
1395.000,1401.000,1389.000
1392.000,1397.000,1382.000
1407.000,1407.000,1394.000
1399.000,1394.000,1404.000
1394.000,1397.000,1390.000
1393.000,1397.000,1387.000
1400.000,1398.000,1408.000
1394.000,1394.000,1393.000
1395.000,1403.000,1394.000
1388.000,1394.000,1392.000
1392.000,1402.000,1404.000
1402.000,1392.000,1409.000
1395.000,1400.000,1411.000
1398.000,1404.000,1406.000
1414.000,1400.000,1408.000
1402.000,1399.000,1400.000
1397.000,1406.000,1417.000
1418.000,1417.000,1419.000
1428.000,1404.000,1419.000
1425.000,1438.000,1429.000
1417.000,1428.000,1424.000
1424.000,1435.000,1433.000
1444.000,1437.000,1440.000
1455.000,1452.000,1440.000
1445.000,1453.000,1455.000
1461.000,1455.000,1455.000
1461.000,1457.000,1460.000
1470.000,1475.000,1458.000
1479.000,1483.000,1470.000
1483.000,1486.000,1480.000
1482.000,1484.000,1492.000
1518.000,1505.000,1515.000
1510.000,1509.000,1510.000
1532.000,1541.000,1524.000
1532.000,1537.000,1537.000
1545.000,1561.000,1568.000
1569.000,1571.000,1577.000
1562.000,1583.000,1596.000
1607.000,1600.000,1599.000
1634.000,1652.000,1627.000
1654.000,1647.000,1646.000
1670.000,1685.000,1698.000
1718.000,1699.000,1704.000
1766.000,1773.000,1741.000
1754.000,1770.000,1785.000
1826.000,1826.000,1818.000
1868.000,1888.000,1894.000
1960.000,1969.000,1972.000
2032.000,2038.000,2022.000
2129.000,2174.000,2147.000
2278.000,2263.000,2281.000
2445.000,2436.000,2404.000
2609.000,2637.000,2646.000
2864.000,2900.000,2888.000
3193.000,3187.000,3177.000
3551.000,3564.000,3559.000
4023.000,4087.000,4025.000
4647.000,4675.000,4696.000
5350.000,5367.000,5331.000
6030.000,5926.000,6052.000
6671.000,6735.000,6680.000
7277.000,7301.000,7188.000
7837.000,7817.000,7747.000
8125.000,8097.000,8063.000
8248.000,8221.000,8259.000
7902.000,8005.000,8003.000
7632.000,7545.000,7568.000
7055.000,7054.000,6992.000
6403.000,6391.000,6450.000
5873.000,5799.000,5721.000
5096.000,5126.000,5037.000
4486.000,4434.000,4454.000
3902.000,3896.000,3944.000
3460.000,3429.000,3487.000
3097.000,3100.000,3027.000
2761.000,2759.000,2751.000
2527.000,2532.000,2561.000
2326.000,2329.000,2372.000
2186.000,2203.000,2214.000
2114.000,2124.000,2083.000
2006.000,2013.000,2007.000
1918.000,1915.000,1903.000
1845.000,1850.000,1830.000
1792.000,1788.000,1825.000
1770.000,1764.000,1758.000
1705.000,1730.000,1697.000
1672.000,1672.000,1665.000
1642.000,1634.000,1645.000
1620.000,1610.000,1639.000
1614.000,1610.000,1611.000
1588.000,1570.000,1594.000
1581.000,1556.000,1575.000
1556.000,1550.000,1562.000
1527.000,1538.000,1552.000
1511.000,1526.000,1504.000
1503.000,1498.000,1536.000
1493.000,1487.000,1495.000
1485.000,1487.000,1473.000
1471.000,1474.000,1472.000
1463.000,1458.000,1454.000
1463.000,1468.000,1461.000
1433.000,1443.000,1452.000
1438.000,1438.000,1434.000
1429.000,1452.000,1441.000
1432.000,1443.000,1430.000
1417.000,1422.000,1430.000
1419.000,1420.000,1429.000
1416.000,1413.000,1423.000
1416.000,1420.000,1409.000
1414.000,1420.000,1399.000
1397.000,1414.000,1397.000
1395.000,1398.000,1404.000
1408.000,1400.000,1386.000
1393.000,1406.000,1391.000
1398.000,1398.000,1380.000
1391.000,1378.000,1388.000
1374.000,1388.000,1378.000
1381.000,1389.000,1383.000
1391.000,1384.000,1380.000
1389.000,1379.000,1378.000
1377.000,1379.000,1377.000
1378.000,1368.000,1375.000
1371.000,1385.000,1377.000
1360.000,1370.000,1374.000
1374.000,1361.000,1362.000
1372.000,1368.000,1372.000
1374.000,1369.000,1361.000
1363.000,1356.000,1359.000
1365.000,1359.000,1376.000
1364.000,1362.000,1371.000
1354.000,1357.000,1368.000
1367.000,1354.000,1363.000
1362.000,1369.000,1354.000
1366.000,1362.000,1379.000
1360.000,1363.000,1355.000
1343.000,1351.000,1355.000
1360.000,1352.000,1361.000
1361.000,1367.000,1348.000
1367.000,1359.000,1366.000
1352.000,1365.000,1371.000
1352.000,1359.000,1358.000
1369.000,1354.000,1362.000
1360.000,1375.000,1352.000
1371.000,1356.000,1375.000
1367.000,1365.000,1370.000
1351.000,1359.000,1368.000
1374.000,1369.000,1369.000
1375.000,1363.000,1372.000
1364.000,1374.000,1377.000
1366.000,1374.000,1378.000
1360.000,1367.000,1362.000
1366.000,1373.000,1368.000
1388.000,1382.000,1361.000
1382.000,1384.000,1373.000
1367.000,1369.000,1388.000
1382.000,1376.000,1379.000
1372.000,1372.000,1385.000
1378.000,1393.000,1393.000
1398.000,1396.000,1392.000
1387.000,1394.000,1392.000
1391.000,1389.000,1407.000
1400.000,1403.000,1389.000
1395.000,1396.000,1405.000
1399.000,1398.000,1401.000
1399.000,1421.000,1410.000
1401.000,1414.000,1414.000
1415.000,1398.000,1401.000
1422.000,1421.000,1435.000
1430.000,1426.000,1414.000
1423.000,1408.000,1416.000
1439.000,1438.000,1435.000
1441.000,1446.000,1440.000
1446.000,1433.000,1435.000
1456.000,1429.000,1435.000
1456.000,1465.000,1443.000
1459.000,1464.000,1452.000
1480.000,1484.000,1460.000
1469.000,1448.000,1473.000
1494.000,1468.000,1482.000
1487.000,1495.000,1477.000
1487.000,1493.000,1505.000
1521.000,1504.000,1501.000
1516.000,1520.000,1514.000
1528.000,1523.000,1530.000
1549.000,1546.000,1539.000
1545.000,1566.000,1549.000
1553.000,1579.000,1563.000
1604.000,1574.000,1597.000
1605.000,1601.000,1578.000
1606.000,1607.000,1613.000
1661.000,1639.000,1636.000
1653.000,1665.000,1642.000
1679.000,1701.000,1713.000
1719.000,1715.000,1717.000
1779.000,1731.000,1751.000
1780.000,1760.000,1784.000
1810.000,1810.000,1809.000
1841.000,1846.000,1847.000
1894.000,1902.000,1881.000
1942.000,1933.000,1935.000
1994.000,1968.000,2018.000
2072.000,2089.000,2076.000
2135.000,2122.000,2119.000
2230.000,2249.000,2234.000
2313.000,2316.000,2287.000
2394.000,2410.000,2393.000
2463.000,2479.000,2499.000
2637.000,2617.000,2624.000
2728.000,2685.000,2689.000
2855.000,2794.000,2805.000
2916.000,2938.000,2960.000
3022.000,3039.000,3033.000
3087.000,3091.000,3084.000
3101.000,3102.000,3158.000
3204.000,3157.000,3167.000
3174.000,3194.000,3142.000
3189.000,3151.000,3156.000
3143.000,3081.000,3094.000
3040.000,3070.000,3031.000
2983.000,2942.000,3002.000
2860.000,2880.000,2858.000
2801.000,2765.000,2787.000
2681.000,2684.000,2702.000
2573.000,2593.000,2579.000
2454.000,2457.000,2461.000
2384.000,2379.000,2383.000
2333.000,2363.000,2352.000
2296.000,2255.000,2292.000
2214.000,2225.000,2215.000
2187.000,2171.000,2210.000
2158.000,2164.000,2148.000
2178.000,2157.000,2158.000
2149.000,2166.000,2163.000
2150.000,2120.000,2099.000
2109.000,2153.000,2129.000
2135.000,2105.000,2117.000
2130.000,2148.000,2121.000
2138.000,2142.000,2180.000
2184.000,2187.000,2163.000
2186.000,2182.000,2189.000
2198.000,2222.000,2220.000
2275.000,2291.000,2264.000
2283.000,2279.000,2260.000
2314.000,2347.000,2335.000
2388.000,2385.000,2394.000
2471.000,2434.000,2449.000
2564.000,2519.000,2482.000
2593.000,2548.000,2579.000
2646.000,2616.000,2621.000
2696.000,2740.000,2731.000
2820.000,2773.000,2785.000
2853.000,2886.000,2847.000
2918.000,2984.000,2952.000
2998.000,2963.000,3022.000
3073.000,3048.000,3081.000
3113.000,3084.000,3096.000
3098.000,3081.000,3104.000
3083.000,3103.000,3125.000
3084.000,3087.000,3049.000
3035.000,2979.000,3008.000
2977.000,2956.000,2913.000
2782.000,2812.000,2825.000
2717.000,2715.000,2657.000
2613.000,2615.000,2573.000
2517.000,2520.000,2449.000
2428.000,2380.000,2390.000
2337.000,2310.000,2319.000
2262.000,2242.000,2210.000
2182.000,2154.000,2151.000
2122.000,2114.000,2106.000
2076.000,2054.000,2070.000
2059.000,2041.000,2007.000
2014.000,2015.000,2005.000
1999.000,1971.000,1982.000
1983.000,1960.000,1936.000
1923.000,1935.000,1976.000
1900.000,1943.000,1917.000
1916.000,1890.000,1900.000
1890.000,1912.000,1895.000
1887.000,1865.000,1882.000
1866.000,1847.000,1859.000
1816.000,1850.000,1828.000
1834.000,1819.000,1848.000
1807.000,1805.000,1797.000
1773.000,1781.000,1765.000
1752.000,1755.000,1759.000
1722.000,1725.000,1757.000
1700.000,1737.000,1711.000
1706.000,1671.000,1676.000
1675.000,1696.000,1667.000
1623.000,1654.000,1651.000
1623.000,1636.000,1624.000
1613.000,1612.000,1630.000
1590.000,1587.000,1589.000
1581.000,1563.000,1553.000
1573.000,1559.000,1557.000
1546.000,1538.000,1540.000
1545.000,1526.000,1518.000
1514.000,1498.000,1505.000
1512.000,1511.000,1516.000
1501.000,1505.000,1505.000
1490.000,1489.000,1491.000
1474.000,1482.000,1499.000
1474.000,1476.000,1474.000
1461.000,1476.000,1479.000
1454.000,1472.000,1449.000
1451.000,1462.000,1437.000
1456.000,1453.000,1455.000
1449.000,1441.000,1447.000
1438.000,1443.000,1445.000
1435.000,1423.000,1434.000
1433.000,1445.000,1436.000
1434.000,1427.000,1436.000
1433.000,1434.000,1428.000
1432.000,1419.000,1407.000
1425.000,1427.000,1427.000
1420.000,1416.000,1416.000
1419.000,1410.000,1407.000
1405.000,1409.000,1402.000
1410.000,1404.000,1396.000
1402.000,1386.000,1405.000
1400.000,1407.000,1398.000
1391.000,1389.000,1401.000
1388.000,1380.000,1391.000
1383.000,1386.000,1385.000
1376.000,1387.000,1378.000
1370.000,1371.000,1395.000
1372.000,1379.000,1368.000
1380.000,1367.000,1377.000
1377.000,1366.000,1362.000
1359.000,1361.000,1357.000
1352.000,1357.000,1359.000
1358.000,1359.000,1348.000
1361.000,1355.000,1365.000
1360.000,1347.000,1366.000
1355.000,1351.000,1353.000
1340.000,1347.000,1343.000
1354.000,1344.000,1362.000
1360.000,1353.000,1350.000
1347.000,1354.000,1348.000
1352.000,1365.000,1353.000
1364.000,1342.000,1346.000
1348.000,1345.000,1353.000
1348.000,1346.000,1354.000
1346.000,1358.000,1356.000
1346.000,1339.000,1348.000
1345.000,1337.000,1347.000
1344.000,1341.000,1349.000
1337.000,1353.000,1334.000
1350.000,1338.000,1346.000
1335.000,1343.000,1345.000
1345.000,1336.000,1345.000
1339.000,1347.000,1338.000
1336.000,1338.000,1350.000
1328.000,1358.000,1347.000
1346.000,1343.000,1329.000
1354.000,1351.000,1332.000
1337.000,1342.000,1338.000
1342.000,1350.000,1334.000
1343.000,1348.000,1342.000
1353.000,1347.000,1353.000
1344.000,1346.000,1338.000
1342.000,1339.000,1345.000
1351.000,1346.000,1334.000
1343.000,1339.000,1360.000
1345.000,1347.000,1343.000
1356.000,1351.000,1345.000
1363.000,1356.000,1345.000
1342.000,1351.000,1349.000
1355.000,1359.000,1354.000
1360.000,1368.000,1358.000
1355.000,1354.000,1344.000
1362.000,1347.000,1358.000
1364.000,1352.000,1355.000
1369.000,1347.000,1372.000
1363.000,1353.000,1380.000
1362.000,1367.000,1371.000
1371.000,1371.000,1380.000
1369.000,1366.000,1378.000
1368.000,1384.000,1387.000
1367.000,1380.000,1375.000
1369.000,1358.000,1367.000
1389.000,1397.000,1382.000
1389.000,1387.000,1388.000
1381.000,1373.000,1393.000
1389.000,1396.000,1395.000
1387.000,1381.000,1391.000
1386.000,1395.000,1395.000
1399.000,1403.000,1389.000
1404.000,1402.000,1408.000
1406.000,1409.000,1411.000
1395.000,1413.000,1406.000
1414.000,1408.000,1424.000
1424.000,1408.000,1424.000
1419.000,1408.000,1410.000
1444.000,1419.000,1411.000
1420.000,1421.000,1413.000
1426.000,1422.000,1427.000
1449.000,1436.000,1436.000
1429.000,1441.000,1427.000
1453.000,1437.000,1432.000
1451.000,1457.000,1440.000
1455.000,1457.000,1443.000
1461.000,1466.000,1463.000
1463.000,1468.000,1468.000
1455.000,1480.000,1466.000
1488.000,1505.000,1496.000
1498.000,1498.000,1483.000
1506.000,1511.000,1507.000
1513.000,1502.000,1524.000
1524.000,1531.000,1523.000
1523.000,1550.000,1543.000
1547.000,1571.000,1550.000
1551.000,1574.000,1557.000
1585.000,1582.000,1591.000
1598.000,1602.000,1600.000
1644.000,1634.000,1630.000
1655.000,1672.000,1665.000
1686.000,1688.000,1691.000
1728.000,1723.000,1730.000
1759.000,1748.000,1757.000
1797.000,1790.000,1800.000
1846.000,1857.000,1869.000
1890.000,1879.000,1901.000
1938.000,1933.000,1916.000
1940.000,1983.000,1941.000
1981.000,1978.000,1985.000
1995.000,1974.000,1995.000
2014.000,2002.000,1983.000
2023.000,2003.000,1997.000
1999.000,1999.000,2000.000
1967.000,1976.000,1991.000
1961.000,1957.000,1920.000
1893.000,1929.000,1877.000
1887.000,1878.000,1875.000
1846.000,1821.000,1836.000
1804.000,1785.000,1804.000
1761.000,1758.000,1777.000
1715.000,1707.000,1712.000
1712.000,1707.000,1699.000
1687.000,1680.000,1663.000
1658.000,1643.000,1644.000
1635.000,1624.000,1639.000
1611.000,1612.000,1602.000
1578.000,1591.000,1586.000
1587.000,1578.000,1560.000
1545.000,1553.000,1546.000
1556.000,1565.000,1545.000
1533.000,1544.000,1536.000
1516.000,1514.000,1516.000
1521.000,1521.000,1509.000
1492.000,1488.000,1511.000
1492.000,1499.000,1503.000
1468.000,1495.000,1486.000
1480.000,1496.000,1482.000
1489.000,1482.000,1497.000
1483.000,1484.000,1480.000
1480.000,1484.000,1451.000
1465.000,1480.000,1486.000
1469.000,1462.000,1487.000
1466.000,1460.000,1454.000
1460.000,1465.000,1484.000
1463.000,1469.000,1463.000
1469.000,1450.000,1446.000
1466.000,1459.000,1452.000
1470.000,1460.000,1452.000
1439.000,1445.000,1473.000
1448.000,1452.000,1433.000
1445.000,1454.000,1452.000
1451.000,1433.000,1445.000
1451.000,1442.000,1444.000
1450.000,1443.000,1443.000
1436.000,1437.000,1433.000
1442.000,1452.000,1434.000
1443.000,1448.000,1425.000
1433.000,1442.000,1437.000
1428.000,1426.000,1427.000
1437.000,1437.000,1433.000
1443.000,1432.000,1450.000
1449.000,1427.000,1440.000
1444.000,1423.000,1432.000
1421.000,1424.000,1425.000
1423.000,1423.000,1418.000
1418.000,1454.000,1419.000
1437.000,1432.000,1443.000
1425.000,1441.000,1439.000
1438.000,1438.000,1426.000
1446.000,1422.000,1423.000
1429.000,1441.000,1435.000
1425.000,1429.000,1443.000
1434.000,1426.000,1432.000
1424.000,1431.000,1447.000
1448.000,1427.000,1440.000
1437.000,1425.000,1442.000
1417.000,1433.000,1445.000
1438.000,1439.000,1431.000
1430.000,1426.000,1429.000
1432.000,1448.000,1423.000
1426.000,1426.000,1428.000
1432.000,1441.000,1420.000
1419.000,1422.000,1413.000
1430.000,1439.000,1430.000
1434.000,1429.000,1436.000
1422.000,1422.000,1437.000
1431.000,1428.000,1445.000
1428.000,1438.000,1432.000
1427.000,1444.000,1440.000
1422.000,1438.000,1436.000
1439.000,1421.000,1451.000
1443.000,1454.000,1432.000
1440.000,1454.000,1447.000
1445.000,1444.000,1460.000
1454.000,1459.000,1460.000
1473.000,1440.000,1462.000
1440.000,1455.000,1455.000
1447.000,1438.000,1467.000
1464.000,1471.000,1453.000
1456.000,1478.000,1439.000
1458.000,1459.000,1461.000
1475.000,1465.000,1475.000
1475.000,1479.000,1449.000
1476.000,1474.000,1480.000
1484.000,1477.000,1497.000
1492.000,1476.000,1469.000
1495.000,1497.000,1492.000
1499.000,1483.000,1500.000
1495.000,1497.000,1506.000
1492.000,1509.000,1505.000
1503.000,1521.000,1514.000
1518.000,1520.000,1519.000
1521.000,1515.000,1526.000
1507.000,1526.000,1539.000
1531.000,1538.000,1545.000
1554.000,1561.000,1550.000
1542.000,1557.000,1531.000
1537.000,1561.000,1542.000
1566.000,1549.000,1559.000
1551.000,1555.000,1560.000
1572.000,1533.000,1555.000
1544.000,1558.000,1552.000
1552.000,1546.000,1566.000
1553.000,1560.000,1568.000
1548.000,1559.000,1531.000
1560.000,1589.000,1565.000
1566.000,1575.000,1567.000
1559.000,1578.000,1572.000
1583.000,1552.000,1564.000
1562.000,1573.000,1574.000
1578.000,1582.000,1581.000
1587.000,1559.000,1595.000
1593.000,1579.000,1599.000
1576.000,1590.000,1583.000
1615.000,1597.000,1596.000
1589.000,1598.000,1596.000
1618.000,1622.000,1598.000
1615.000,1603.000,1615.000
1600.000,1604.000,1629.000
1617.000,1619.000,1603.000
1604.000,1628.000,1642.000
1627.000,1659.000,1630.000
1627.000,1646.000,1641.000
1630.000,1645.000,1630.000
1645.000,1653.000,1647.000
1645.000,1664.000,1660.000
1659.000,1675.000,1671.000
1671.000,1664.000,1670.000
1663.000,1706.000,1675.000
1681.000,1701.000,1660.000
1682.000,1714.000,1682.000
1708.000,1703.000,1700.000
1697.000,1718.000,1708.000
1700.000,1718.000,1717.000
1725.000,1708.000,1723.000
1743.000,1728.000,1733.000
1743.000,1735.000,1757.000
1748.000,1756.000,1730.000
1736.000,1743.000,1748.000
1768.000,1756.000,1781.000
1783.000,1771.000,1740.000
1761.000,1752.000,1775.000
1787.000,1787.000,1794.000
1812.000,1796.000,1812.000
1824.000,1814.000,1800.000
1845.000,1820.000,1816.000
1864.000,1853.000,1855.000
1861.000,1849.000,1869.000
1924.000,1895.000,1903.000
1903.000,1898.000,1904.000
1952.000,1939.000,1938.000
1967.000,1949.000,1976.000
1962.000,2012.000,1996.000
2003.000,2003.000,1997.000
2050.000,2076.000,2044.000
2093.000,2069.000,2045.000
2094.000,2095.000,2116.000
2152.000,2137.000,2158.000
2185.000,2189.000,2208.000
2223.000,2255.000,2213.000
2335.000,2265.000,2278.000
2325.000,2338.000,2362.000
2392.000,2397.000,2389.000
2477.000,2430.000,2437.000
2490.000,2543.000,2525.000
2583.000,2570.000,2621.000
2589.000,2653.000,2635.000
2665.000,2715.000,2719.000
2761.000,2774.000,2736.000
2755.000,2783.000,2771.000
2842.000,2773.000,2785.000
2790.000,2836.000,2845.000
2823.000,2869.000,2864.000
2849.000,2862.000,2889.000
2849.000,2842.000,2824.000
2840.000,2851.000,2833.000
2779.000,2759.000,2775.000
2703.000,2724.000,2676.000
2636.000,2614.000,2603.000
2569.000,2530.000,2539.000
2481.000,2488.000,2463.000
2393.000,2419.000,2383.000
2280.000,2315.000,2309.000
2280.000,2264.000,2260.000
2181.000,2188.000,2192.000
2155.000,2164.000,2178.000
2121.000,2092.000,2081.000
2054.000,2060.000,2049.000
2010.000,2002.000,2033.000
2001.000,1973.000,1983.000
1965.000,1995.000,1955.000
1944.000,1939.000,1948.000
1927.000,1949.000,1944.000
1918.000,1927.000,1953.000
1900.000,1915.000,1913.000
1944.000,1949.000,1923.000
1900.000,1935.000,1906.000
1914.000,1921.000,1942.000
1926.000,1945.000,1936.000
1926.000,1945.000,1928.000
1917.000,1924.000,1933.000
1915.000,1941.000,1927.000
1913.000,1910.000,1944.000
1888.000,1904.000,1917.000
1886.000,1893.000,1898.000
1860.000,1897.000,1892.000
1851.000,1850.000,1884.000
1843.000,1841.000,1847.000
1816.000,1836.000,1830.000
1795.000,1811.000,1778.000
1771.000,1771.000,1764.000
1764.000,1755.000,1734.000
1730.000,1712.000,1729.000
1706.000,1700.000,1699.000
1657.000,1668.000,1677.000
1655.000,1657.000,1676.000
1656.000,1628.000,1639.000
1618.000,1618.000,1628.000
1595.000,1605.000,1604.000
1585.000,1563.000,1572.000
1560.000,1566.000,1573.000
1552.000,1562.000,1563.000
1565.000,1547.000,1557.000
1550.000,1521.000,1544.000
1534.000,1536.000,1536.000
1515.000,1518.000,1502.000
1505.000,1509.000,1512.000
1489.000,1501.000,1488.000
1501.000,1490.000,1493.000
1480.000,1495.000,1488.000
1461.000,1487.000,1493.000
1474.000,1473.000,1467.000
1471.000,1461.000,1460.000
1454.000,1468.000,1451.000
1460.000,1452.000,1454.000
1451.000,1454.000,1461.000
1436.000,1440.000,1443.000
1430.000,1432.000,1450.000
1437.000,1464.000,1433.000
1428.000,1439.000,1431.000
1422.000,1438.000,1427.000
1427.000,1435.000,1428.000
1390.000,1429.000,1423.000
1407.000,1432.000,1413.000
1411.000,1405.000,1414.000
1421.000,1412.000,1412.000
1404.000,1398.000,1407.000
1406.000,1398.000,1412.000
1404.000,1394.000,1392.000
1389.000,1385.000,1397.000
1380.000,1389.000,1388.000
1384.000,1370.000,1368.000
1386.000,1371.000,1403.000
1371.000,1375.000,1380.000
1361.000,1365.000,1375.000
1373.000,1372.000,1374.000
1368.000,1375.000,1354.000
1356.000,1359.000,1362.000
1356.000,1362.000,1369.000
1367.000,1367.000,1367.000
1359.000,1360.000,1357.000
1342.000,1364.000,1349.000
1355.000,1358.000,1357.000
1344.000,1341.000,1347.000
1342.000,1345.000,1349.000
1354.000,1338.000,1339.000
1344.000,1344.000,1331.000
1340.000,1349.000,1324.000
1336.000,1332.000,1327.000
1344.000,1341.000,1332.000
1336.000,1331.000,1342.000
1332.000,1343.000,1333.000
1328.000,1333.000,1315.000
1329.000,1328.000,1330.000
1320.000,1321.000,1324.000
1324.000,1327.000,1319.000
1322.000,1318.000,1319.000
1322.000,1321.000,1322.000
1327.000,1310.000,1308.000
1309.000,1312.000,1319.000
1335.000,1332.000,1307.000
1315.000,1316.000,1319.000
1322.000,1318.000,1311.000
1307.000,1319.000,1313.000
1308.000,1311.000,1320.000
1312.000,1313.000,1304.000
1312.000,1311.000,1309.000
1312.000,1307.000,1315.000
1306.000,1309.000,1295.000
1303.000,1311.000,1315.000
1309.000,1292.000,1305.000
1304.000,1304.000,1306.000
1293.000,1304.000,1298.000
1294.000,1305.000,1306.000
1299.000,1304.000,1295.000
1298.000,1285.000,1292.000
1293.000,1296.000,1300.000
1286.000,1290.000,1300.000
1289.000,1293.000,1287.000
1292.000,1294.000,1294.000
1296.000,1291.000,1290.000
1283.000,1282.000,1286.000
1289.000,1290.000,1283.000
1294.000,1295.000,1286.000
1285.000,1281.000,1280.000
1283.000,1280.000,1287.000
1288.000,1282.000,1289.000
1283.000,1287.000,1285.000
1281.000,1280.000,1283.000
1288.000,1283.000,1281.000
1286.000,1284.000,1279.000
1271.000,1277.000,1280.000
1272.000,1275.000,1277.000
1273.000,1268.000,1278.000
1280.000,1272.000,1273.000
1278.000,1283.000,1270.000
1272.000,1271.000,1271.000
1277.000,1277.000,1276.000
1275.000,1268.000,1272.000
1270.000,1271.000,1272.000
1265.000,1273.000,1276.000
1275.000,1273.000,1274.000
1270.000,1271.000,1269.000
1270.000,1267.000,1275.000
1271.000,1269.000,1275.000
1285.000,1270.000,1277.000
1275.000,1273.000,1265.000
1272.000,1265.000,1277.000
1274.000,1272.000,1275.000
1267.000,1267.000,1275.000
1276.000,1266.000,1271.000
1265.000,1274.000,1271.000
1262.000,1270.000,1270.000
1268.000,1268.000,1267.000
1271.000,1275.000,1267.000
1270.000,1269.000,1275.000
1268.000,1270.000,1278.000
1278.000,1272.000,1262.000
1274.000,1271.000,1264.000
1276.000,1272.000,1274.000
1272.000,1280.000,1272.000
1282.000,1271.000,1269.000
1275.000,1269.000,1273.000
1269.000,1271.000,1266.000
1270.000,1271.000,1269.000
1267.000,1272.000,1272.000
1267.000,1266.000,1272.000
1266.000,1276.000,1272.000
1269.000,1271.000,1264.000
1276.000,1274.000,1265.000
1271.000,1276.000,1269.000
1277.000,1266.000,1271.000
1271.000,1267.000,1272.000
1268.000,1271.000,1269.000
1267.000,1261.000,1277.000
1259.000,1268.000,1265.000
1269.000,1269.000,1275.000
1273.000,1259.000,1263.000
1267.000,1267.000,1259.000
1260.000,1266.000,1270.000
1264.000,1263.000,1264.000
1266.000,1267.000,1258.000
1257.000,1264.000,1267.000
1262.000,1262.000,1260.000
1268.000,1267.000,1257.000
1262.000,1259.000,1264.000
1263.000,1259.000,1257.000
1267.000,1264.000,1257.000
1262.000,1255.000,1265.000
1257.000,1259.000,1256.000
1254.000,1260.000,1263.000
1251.000,1256.000,1257.000
1259.000,1255.000,1263.000
1257.000,1262.000,1261.000
1259.000,1254.000,1258.000
1264.000,1255.000,1248.000
1264.000,1260.000,1256.000
1256.000,1253.000,1253.000
1255.000,1250.000,1251.000
1255.000,1253.000,1255.000
1256.000,1258.000,1258.000
1255.000,1259.000,1258.000
1254.000,1247.000,1254.000
1252.000,1257.000,1252.000
1255.000,1249.000,1253.000
1251.000,1254.000,1255.000
1251.000,1252.000,1251.000
1254.000,1250.000,1249.000
1249.000,1250.000,1244.000
1253.000,1247.000,1250.000
1253.000,1248.000,1251.000
1250.000,1253.000,1255.000
1254.000,1252.000,1250.000
1252.000,1253.000,1250.000
1252.000,1254.000,1248.000
1258.000,1249.000,1253.000
1251.000,1257.000,1254.000
1252.000,1252.000,1255.000
1257.000,1250.000,1253.000
1253.000,1250.000,1255.000
1255.000,1257.000,1252.000
1248.000,1253.000,1247.000
1248.000,1250.000,1250.000
1253.000,1255.000,1251.000
1255.000,1249.000,1248.000
1250.000,1256.000,1258.000
1253.000,1252.000,1254.000
1256.000,1253.000,1249.000
1259.000,1255.000,1251.000
1254.000,1261.000,1249.000
1249.000,1251.000,1254.000
1246.000,1254.000,1246.000
1252.000,1248.000,1252.000
1252.000,1251.000,1248.000
1250.000,1255.000,1250.000
1246.000,1254.000,1246.000
1252.000,1256.000,1248.000
1248.000,1257.000,1253.000
1252.000,1252.000,1250.000
1249.000,1255.000,1245.000
1251.000,1247.000,1254.000
1249.000,1254.000,1250.000
1248.000,1249.000,1248.000
1245.000,1248.000,1252.000
1254.000,1250.000,1251.000
1255.000,1248.000,1254.000
1250.000,1255.000,1251.000
1254.000,1260.000,1254.000
1251.000,1249.000,1257.000
1260.000,1253.000,1251.000
1250.000,1255.000,1253.000
1252.000,1255.000,1251.000
1252.000,1256.000,1252.000
1253.000,1258.000,1250.000
1248.000,1256.000,1256.000
1254.000,1253.000,1253.000
1248.000,1250.000,1253.000
1251.000,1250.000,1252.000
1253.000,1254.000,1249.000
1250.000,1244.000,1254.000
1248.000,1252.000,1247.000
1254.000,1248.000,1254.000
1248.000,1251.000,1256.000
1254.000,1251.000,1251.000
1251.000,1258.000,1246.000
1246.000,1250.000,1249.000
1254.000,1261.000,1255.000
1253.000,1248.000,1253.000
1255.000,1249.000,1248.000
1253.000,1248.000,1259.000
1256.000,1254.000,1248.000
1256.000,1252.000,1258.000
1252.000,1252.000,1255.000
1251.000,1256.000,1252.000
1251.000,1257.000,1249.000
1254.000,1251.000,1256.000
1260.000,1255.000,1250.000
1250.000,1252.000,1260.000
1252.000,1255.000,1252.000
1254.000,1242.000,1251.000
1249.000,1246.000,1250.000
1256.000,1249.000,1251.000
1249.000,1244.000,1257.000
1254.000,1247.000,1247.000
1255.000,1249.000,1243.000
1251.000,1252.000,1253.000
1255.000,1246.000,1243.000
1252.000,1246.000,1251.000
1252.000,1248.000,1252.000
1251.000,1250.000,1253.000
1255.000,1249.000,1247.000
1248.000,1248.000,1245.000
1249.000,1249.000,1246.000
1248.000,1247.000,1248.000
1246.000,1244.000,1248.000
1246.000,1247.000,1242.000
1247.000,1249.000,1248.000
1243.000,1242.000,1248.000
1240.000,1250.000,1247.000
1245.000,1251.000,1252.000
1244.000,1251.000,1250.000
1240.000,1252.000,1240.000
1251.000,1258.000,1243.000
1250.000,1249.000,1253.000
1244.000,1249.000,1244.000
1242.000,1245.000,1245.000
1243.000,1246.000,1242.000
1242.000,1242.000,1250.000
1240.000,1246.000,1248.000
1248.000,1247.000,1244.000
1244.000,1248.000,1245.000
1239.000,1235.000,1244.000
1240.000,1240.000,1241.000
1252.000,1247.000,1242.000
1245.000,1244.000,1248.000
1242.000,1240.000,1241.000
1241.000,1246.000,1244.000
1246.000,1239.000,1240.000
1245.000,1242.000,1242.000
1240.000,1241.000,1240.000
1241.000,1241.000,1243.000
1247.000,1242.000,1240.000
1240.000,1248.000,1236.000
1235.000,1239.000,1242.000
1244.000,1240.000,1242.000
1235.000,1238.000,1244.000
1239.000,1238.000,1243.000
1243.000,1237.000,1243.000
1246.000,1245.000,1243.000
1244.000,1243.000,1240.000
1238.000,1239.000,1237.000
1247.000,1241.000,1241.000
1246.000,1246.000,1243.000
1242.000,1240.000,1243.000
1239.000,1243.000,1242.000
1237.000,1239.000,1247.000
1242.000,1245.000,1238.000
1242.000,1240.000,1236.000
1237.000,1244.000,1239.000
1246.000,1240.000,1242.000
1237.000,1240.000,1243.000
1243.000,1241.000,1236.000
1240.000,1240.000,1242.000
1245.000,1243.000,1240.000
1243.000,1239.000,1239.000
1243.000,1237.000,1241.000
1245.000,1244.000,1241.000
1243.000,1240.000,1243.000
1243.000,1240.000,1241.000
1233.000,1240.000,1238.000
1237.000,1237.000,1233.000
1239.000,1237.000,1240.000
1236.000,1243.000,1239.000
1235.000,1237.000,1239.000
1241.000,1234.000,1232.000
1235.000,1237.000,1237.000
1240.000,1243.000,1234.000
1239.000,1240.000,1242.000
1233.000,1243.000,1232.000
1238.000,1240.000,1238.000
1235.000,1236.000,1238.000
1236.000,1237.000,1234.000
1237.000,1243.000,1243.000
1234.000,1240.000,1242.000
1241.000,1235.000,1235.000
1235.000,1238.000,1234.000
1235.000,1235.000,1233.000
1235.000,1240.000,1242.000
1240.000,1241.000,1236.000
1238.000,1238.000,1239.000
1242.000,1235.000,1241.000
1237.000,1238.000,1241.000
1237.000,1232.000,1234.000
1234.000,1236.000,1242.000
1236.000,1237.000,1233.000
1236.000,1239.000,1236.000
1240.000,1235.000,1233.000
1234.000,1239.000,1239.000
1236.000,1243.000,1239.000
1234.000,1236.000,1231.000
1236.000,1243.000,1235.000
1237.000,1234.000,1235.000
1233.000,1234.000,1235.000
1236.000,1238.000,1235.000
1239.000,1235.000,1239.000
1236.000,1245.000,1234.000
1236.000,1238.000,1240.000
1229.000,1235.000,1235.000
1235.000,1230.000,1233.000
1239.000,1231.000,1229.000
1235.000,1232.000,1231.000
1232.000,1234.000,1239.000
1234.000,1234.000,1232.000
1233.000,1235.000,1236.000
1230.000,1238.000,1229.000
1235.000,1233.000,1234.000
1239.000,1237.000,1234.000
1233.000,1233.000,1227.000
1238.000,1230.000,1236.000
1238.000,1228.000,1235.000
1237.000,1228.000,1234.000
1232.000,1232.000,1235.000
1230.000,1234.000,1239.000
1236.000,1237.000,1236.000
1239.000,1235.000,1232.000
1231.000,1233.000,1232.000
1234.000,1238.000,1235.000
1237.000,1231.000,1235.000
1231.000,1234.000,1230.000
1233.000,1233.000,1230.000
1235.000,1232.000,1230.000
1236.000,1232.000,1234.000
1234.000,1234.000,1230.000
1234.000,1233.000,1233.000
1235.000,1233.000,1227.000
1232.000,1226.000,1234.000
1236.000,1234.000,1233.000
1231.000,1236.000,1234.000
1236.000,1231.000,1232.000
1235.000,1236.000,1234.000
1232.000,1232.000,1230.000
1234.000,1234.000,1234.000
1238.000,1233.000,1232.000
1231.000,1236.000,1229.000
1232.000,1235.000,1233.000
1232.000,1236.000,1231.000
1234.000,1236.000,1228.000
1237.000,1232.000,1230.000
1233.000,1234.000,1234.000
1232.000,1227.000,1230.000
1235.000,1233.000,1233.000
1230.000,1228.000,1234.000
1231.000,1232.000,1233.000
1234.000,1232.000,1232.000
1234.000,1234.000,1227.000
1234.000,1234.000,1232.000
1230.000,1235.000,1231.000
1230.000,1228.000,1232.000
1225.000,1236.000,1234.000
1236.000,1232.000,1235.000
1238.000,1231.000,1233.000
1230.000,1232.000,1232.000
1233.000,1232.000,1230.000
1233.000,1228.000,1230.000
1228.000,1228.000,1233.000
1236.000,1232.000,1231.000
1232.000,1226.000,1229.000
1227.000,1229.000,1232.000
1226.000,1230.000,1235.000
1237.000,1232.000,1233.000
1233.000,1232.000,1231.000
1232.000,1231.000,1232.000
1232.000,1228.000,1237.000
1233.000,1228.000,1232.000
1236.000,1231.000,1231.000
1233.000,1233.000,1236.000
1230.000,1228.000,1231.000
1235.000,1233.000,1235.000
1233.000,1231.000,1230.000
1234.000,1235.000,1230.000
1230.000,1230.000,1230.000
1230.000,1235.000,1232.000
1232.000,1231.000,1230.000
1232.000,1238.000,1227.000
1234.000,1231.000,1234.000
1231.000,1232.000,1230.000
1230.000,1232.000,1235.000
1235.000,1231.000,1231.000
1226.000,1226.000,1231.000
1227.000,1230.000,1236.000
1237.000,1229.000,1227.000
1228.000,1231.000,1232.000
1229.000,1231.000,1234.000
1230.000,1231.000,1232.000
1228.000,1234.000,1235.000
1226.000,1232.000,1232.000
1229.000,1232.000,1231.000
1225.000,1231.000,1235.000
1232.000,1232.000,1228.000
1231.000,1231.000,1235.000
1228.000,1230.000,1229.000
1228.000,1233.000,1233.000
1227.000,1232.000,1230.000
1230.000,1233.000,1229.000
1231.000,1229.000,1231.000
1228.000,1228.000,1229.000
1232.000,1230.000,1227.000
1232.000,1228.000,1231.000
1229.000,1231.000,1235.000
1231.000,1234.000,1231.000
1231.000,1235.000,1228.000
1227.000,1224.000,1228.000
1227.000,1229.000,1229.000
1226.000,1227.000,1231.000
1228.000,1230.000,1230.000
1235.000,1227.000,1228.000
1234.000,1229.000,1228.000
1231.000,1233.000,1227.000
1235.000,1228.000,1229.000
1232.000,1234.000,1228.000
1231.000,1233.000,1227.000
1230.000,1224.000,1233.000
1224.000,1227.000,1228.000
1233.000,1231.000,1229.000
1229.000,1226.000,1228.000
1228.000,1231.000,1226.000
1233.000,1226.000,1229.000
1221.000,1230.000,1232.000
1223.000,1232.000,1229.000
1232.000,1227.000,1229.000
1233.000,1230.000,1230.000
1231.000,1228.000,1231.000
1233.000,1227.000,1229.000
1227.000,1227.000,1234.000
1227.000,1230.000,1228.000
1230.000,1230.000,1228.000
1227.000,1231.000,1227.000
1226.000,1231.000,1229.000
1231.000,1228.000,1234.000
1232.000,1227.000,1228.000
1230.000,1227.000,1229.000
1230.000,1227.000,1229.000
1228.000,1231.000,1231.000
1231.000,1228.000,1229.000
1227.000,1234.000,1231.000
1230.000,1227.000,1226.000
1228.000,1232.000,1233.000
1225.000,1230.000,1233.000
1228.000,1231.000,1231.000
1225.000,1225.000,1227.000
1229.000,1230.000,1230.000
1230.000,1225.000,1235.000
1232.000,1227.000,1226.000
1226.000,1230.000,1229.000
1226.000,1229.000,1228.000
1228.000,1230.000,1226.000
1231.000,1228.000,1230.000
1229.000,1228.000,1230.000
1228.000,1228.000,1227.000
1228.000,1228.000,1227.000
1226.000,1226.000,1226.000
1226.000,1222.000,1226.000
1227.000,1229.000,1229.000
1224.000,1230.000,1230.000
1230.000,1227.000,1226.000
1227.000,1220.000,1228.000
1226.000,1232.000,1229.000
1231.000,1225.000,1226.000
1224.000,1224.000,1231.000
1228.000,1228.000,1225.000
1227.000,1228.000,1227.000
1225.000,1225.000,1230.000
1227.000,1224.000,1225.000
1228.000,1224.000,1225.000
1225.000,1229.000,1227.000
1225.000,1226.000,1231.000
1226.000,1226.000,1227.000
1228.000,1229.000,1230.000
1227.000,1228.000,1224.000
1221.000,1226.000,1224.000
1222.000,1230.000,1225.000
1222.000,1227.000,1228.000
1224.000,1227.000,1229.000
1227.000,1223.000,1224.000
1228.000,1227.000,1223.000
1225.000,1223.000,1226.000
1230.000,1227.000,1221.000
1224.000,1224.000,1226.000
1224.000,1222.000,1226.000
1225.000,1224.000,1219.000
1228.000,1225.000,1226.000
1223.000,1227.000,1223.000
1220.000,1225.000,1228.000
1226.000,1224.000,1227.000
1224.000,1225.000,1228.000
1219.000,1229.000,1225.000
1226.000,1223.000,1230.000
1224.000,1227.000,1223.000
1230.000,1227.000,1223.000
1223.000,1226.000,1226.000
1223.000,1227.000,1226.000
1226.000,1221.000,1224.000
1221.000,1230.000,1224.000
1222.000,1225.000,1227.000
1227.000,1229.000,1225.000
1228.000,1226.000,1231.000
1223.000,1227.000,1230.000
1223.000,1225.000,1228.000
1227.000,1230.000,1231.000
1225.000,1230.000,1226.000
1227.000,1225.000,1226.000
1224.000,1226.000,1226.000
1222.000,1228.000,1227.000
1226.000,1225.000,1228.000
1225.000,1224.000,1226.000
1230.000,1221.000,1226.000
1226.000,1229.000,1226.000
1226.000,1227.000,1224.000
1223.000,1226.000,1222.000
1227.000,1222.000,1224.000
1229.000,1222.000,1225.000
1226.000,1224.000,1228.000
1226.000,1222.000,1227.000
1227.000,1228.000,1224.000
1224.000,1226.000,1226.000
1228.000,1223.000,1221.000
1223.000,1224.000,1223.000
1226.000,1225.000,1225.000
1227.000,1227.000,1225.000
1227.000,1224.000,1226.000
1222.000,1226.000,1225.000
1229.000,1225.000,1227.000
1227.000,1225.000,1227.000
1228.000,1227.000,1223.000
1223.000,1227.000,1220.000
1222.000,1230.000,1224.000
1225.000,1222.000,1222.000
