Focus Mode,Read Mode,Exposure Time (sec),Number of Frames,Start Y,End Y,Date,Time,Position (microns)
Single Acquisition,Spectrum,20.000000,3,105,125,2/11/2021,5:46:40 PM,0.000000,0.000000,200.010000,

1273.000,1273.000,1267.000
1269.000,1267.000,1264.000
1267.000,1273.000,1267.000
1265.000,1276.000,1271.000
1275.000,1268.000,1270.000
1270.000,1274.000,1269.000
1266.000,1271.000,1272.000
1271.000,1266.000,1277.000
1269.000,1274.000,1279.000
1276.000,1275.000,1266.000
1269.000,1274.000,1273.000
1279.000,1275.000,1274.000
1274.000,1278.000,1274.000
1271.000,1276.000,1273.000
1281.000,1268.000,1274.000
1275.000,1282.000,1280.000
1280.000,1277.000,1275.000
1275.000,1277.000,1284.000
1280.000,1279.000,1291.000
1279.000,1281.000,1283.000
1282.000,1280.000,1288.000
1293.000,1286.000,1287.000
1291.000,1280.000,1288.000
1295.000,1293.000,1293.000
1297.000,1296.000,1280.000
1301.000,1290.000,1286.000
1291.000,1296.000,1295.000
1289.000,1304.000,1293.000
1299.000,1288.000,1303.000
1301.000,1302.000,1301.000
1304.000,1299.000,1298.000
1300.000,1310.000,1313.000
1306.000,1315.000,1313.000
1308.000,1310.000,1323.000
1315.000,1321.000,1315.000
1335.000,1314.000,1324.000
1323.000,1325.000,1315.000
1330.000,1322.000,1321.000
1329.000,1328.000,1330.000
1340.000,1326.000,1322.000
1336.000,1326.000,1345.000
1330.000,1332.000,1331.000
1336.000,1343.000,1333.000
1359.000,1343.000,1338.000
1351.000,1359.000,1350.000
1363.000,1352.000,1354.000
1368.000,1361.000,1360.000
1382.000,1371.000,1372.000
1381.000,1377.000,1370.000
1387.000,1389.000,1385.000
1400.000,1393.000,1391.000
1384.000,1395.000,1399.000
1406.000,1402.000,1404.000
1405.000,1402.000,1412.000
1419.000,1422.000,1424.000
1422.000,1408.000,1429.000
1432.000,1431.000,1450.000
1432.000,1446.000,1433.000
1445.000,1438.000,1437.000
1446.000,1439.000,1453.000
1456.000,1440.000,1450.000
1442.000,1454.000,1449.000
1448.000,1454.000,1453.000
1463.000,1456.000,1453.000
1456.000,1467.000,1466.000
1460.000,1450.000,1462.000
1475.000,1468.000,1484.000
1475.000,1493.000,1481.000
1522.000,1496.000,1517.000
1508.000,1498.000,1505.000
1524.000,1511.000,1538.000
1530.000,1547.000,1547.000
1555.000,1552.000,1562.000
1605.000,1608.000,1577.000
1626.000,1594.000,1608.000
1644.000,1636.000,1641.000
1651.000,1635.000,1641.000
1673.000,1657.000,1654.000
1680.000,1694.000,1680.000
1670.000,1696.000,1671.000
1706.000,1698.000,1702.000
1710.000,1710.000,1730.000
1751.000,1730.000,1707.000
1760.000,1723.000,1746.000
1736.000,1731.000,1757.000
1774.000,1749.000,1765.000
1786.000,1773.000,1799.000
1818.000,1794.000,1790.000
1793.000,1798.000,1801.000
1851.000,1820.000,1840.000
1848.000,1828.000,1839.000
1874.000,1828.000,1879.000
1888.000,1888.000,1893.000
1915.000,1922.000,1941.000
1990.000,1954.000,1992.000
2009.000,2018.000,2027.000
2120.000,2049.000,2121.000
2159.000,2119.000,2179.000
2299.000,2247.000,2250.000
2440.000,2367.000,2410.000
2508.000,2469.000,2544.000
2657.000,2607.000,2687.000
2818.000,2758.000,2809.000
2926.000,2827.000,2979.000
3015.000,2909.000,3049.000
3180.000,3016.000,3150.000
3196.000,3007.000,3183.000
3198.000,3062.000,3290.000
3220.000,3068.000,3255.000
3209.000,3093.000,3219.000
3158.000,3027.000,3164.000
3182.000,3098.000,3198.000
3110.000,2972.000,3131.000
3065.000,3055.000,3154.000
3087.000,3020.000,3112.000
3106.000,3075.000,3172.000
3179.000,3132.000,3211.000
3309.000,3321.000,3335.000
3479.000,3499.000,3556.000
3771.000,3907.000,3949.000
4348.000,4638.000,4639.000
5403.000,6321.000,5911.000
8218.000,10901.000,9161.000
16327.000,26440.000,18904.000
65535.000,61764.000,61813.000
61963.000,62243.000,62249.000
62230.000,62161.000,62169.000
62132.000,62106.000,62098.000
62133.000,62115.000,62113.000
62125.000,62104.000,62106.000
62091.000,62083.000,62091.000
62085.000,62082.000,62080.000
62095.000,62083.000,62094.000
62082.000,62075.000,62080.000
62081.000,62075.000,62079.000
62088.000,62077.000,62073.000
62077.000,62074.000,62078.000
62075.000,62075.000,62072.000
62073.000,62072.000,62071.000
62075.000,62072.000,62075.000
62075.000,62073.000,62076.000
62075.000,62073.000,62075.000
62074.000,62069.000,62073.000
62068.000,62068.000,62074.000
62073.000,62073.000,62070.000
62068.000,62068.000,62068.000
62072.000,62072.000,62069.000
62072.000,62070.000,62071.000
62068.000,62066.000,62070.000
62069.000,62063.000,62069.000
62072.000,62066.000,62074.000
62068.000,62065.000,62070.000
62069.000,62069.000,62065.000
62070.000,62065.000,62069.000
62074.000,62066.000,62070.000
62067.000,62069.000,62070.000
62068.000,62061.000,62071.000
62075.000,62065.000,62066.000
62068.000,62066.000,62071.000
62071.000,62069.000,62068.000
62068.000,62069.000,62073.000
62073.000,62063.000,62071.000
62064.000,62068.000,62071.000
62072.000,62066.000,62070.000
62074.000,62071.000,62073.000
62070.000,62067.000,62070.000
62071.000,62065.000,62067.000
62073.000,62069.000,62069.000
62069.000,62068.000,62068.000
62067.000,62068.000,62073.000
62067.000,62067.000,62068.000
62073.000,62068.000,62068.000
62072.000,62070.000,62073.000
62071.000,62072.000,62069.000
62092.000,62080.000,62073.000
62112.000,62100.000,62080.000
9253.000,59174.000,62098.000
1567.000,1668.000,61694.000
1530.000,1553.000,1671.000
1535.000,1551.000,1579.000
1499.000,1541.000,1547.000
1534.000,1510.000,1536.000
1502.000,1496.000,1501.000
1493.000,1505.000,1493.000
1471.000,1484.000,1496.000
1471.000,1470.000,1473.000
1467.000,1459.000,1464.000
1450.000,1459.000,1468.000
1443.000,1449.000,1471.000
1453.000,1446.000,1441.000
1448.000,1442.000,1436.000
1435.000,1435.000,1432.000
1454.000,1428.000,1419.000
1429.000,1418.000,1445.000
1416.000,1412.000,1419.000
1426.000,1415.000,1412.000
1406.000,1412.000,1419.000
1411.000,1416.000,1412.000
1402.000,1407.000,1408.000
1407.000,1408.000,1401.000
1384.000,1385.000,1407.000
1397.000,1391.000,1392.000
1386.000,1384.000,1399.000
1395.000,1394.000,1387.000
1391.000,1378.000,1393.000
1388.000,1383.000,1384.000
1368.000,1376.000,1369.000
1386.000,1364.000,1372.000
1376.000,1367.000,1372.000
1376.000,1376.000,1371.000
1364.000,1379.000,1372.000
1363.000,1365.000,1371.000
1365.000,1363.000,1365.000
1364.000,1344.000,1357.000
1348.000,1356.000,1375.000
1358.000,1357.000,1354.000
1342.000,1350.000,1366.000
1352.000,1342.000,1360.000
1351.000,1350.000,1354.000
1340.000,1346.000,1346.000
1350.000,1345.000,1348.000
1327.000,1335.000,1351.000
1335.000,1337.000,1344.000
1340.000,1343.000,1346.000
1334.000,1340.000,1336.000
1334.000,1333.000,1331.000
1326.000,1335.000,1333.000
1327.000,1333.000,1332.000
1324.000,1327.000,1326.000
1327.000,1323.000,1334.000
1335.000,1323.000,1331.000
1326.000,1329.000,1329.000
1339.000,1319.000,1324.000
1317.000,1315.000,1331.000
1328.000,1320.000,1329.000
1324.000,1317.000,1329.000
1325.000,1326.000,1330.000
1335.000,1312.000,1315.000
1326.000,1318.000,1331.000
1318.000,1320.000,1338.000
1319.000,1312.000,1316.000
1315.000,1308.000,1332.000
1309.000,1315.000,1314.000
1305.000,1314.000,1315.000
1302.000,1324.000,1314.000
1302.000,1309.000,1313.000
1301.000,1298.000,1301.000
1315.000,1301.000,1309.000
1304.000,1306.000,1308.000
1306.000,1301.000,1311.000
1306.000,1298.000,1298.000
1303.000,1305.000,1300.000
1294.000,1307.000,1309.000
1308.000,1295.000,1302.000
1287.000,1295.000,1305.000
1298.000,1309.000,1299.000
1307.000,1308.000,1305.000
1300.000,1300.000,1301.000
1293.000,1298.000,1296.000
1302.000,1300.000,1299.000
1296.000,1294.000,1301.000
1292.000,1301.000,1300.000
1289.000,1296.000,1301.000
1302.000,1292.000,1301.000
1295.000,1299.000,1290.000
1297.000,1291.000,1294.000
1296.000,1301.000,1290.000
1293.000,1288.000,1297.000
1298.000,1289.000,1294.000
1299.000,1292.000,1298.000
1286.000,1291.000,1295.000
1291.000,1297.000,1289.000
1290.000,1293.000,1288.000
1286.000,1289.000,1309.000
1294.000,1298.000,1286.000
1286.000,1298.000,1294.000
1296.000,1288.000,1295.000
1291.000,1298.000,1299.000
1300.000,1290.000,1300.000
1299.000,1294.000,1302.000
1294.000,1296.000,1293.000
1302.000,1308.000,1301.000
1316.000,1297.000,1305.000
1295.000,1303.000,1307.000
1310.000,1309.000,1309.000
1311.000,1324.000,1316.000
1316.000,1317.000,1318.000
1316.000,1325.000,1319.000
1327.000,1326.000,1320.000
1328.000,1338.000,1335.000
1347.000,1341.000,1332.000
1364.000,1348.000,1344.000
1358.000,1371.000,1361.000
1366.000,1365.000,1367.000
1367.000,1386.000,1381.000
1405.000,1412.000,1384.000
1426.000,1423.000,1411.000
1443.000,1439.000,1431.000
1464.000,1478.000,1465.000
1508.000,1501.000,1493.000
1529.000,1544.000,1533.000
1585.000,1557.000,1562.000
1636.000,1628.000,1623.000
1693.000,1683.000,1693.000
1767.000,1760.000,1739.000
1849.000,1860.000,1832.000
1945.000,1934.000,1945.000
2056.000,2052.000,2031.000
2228.000,2190.000,2175.000
2379.000,2335.000,2316.000
2559.000,2541.000,2547.000
2778.000,2763.000,2727.000
3050.000,2982.000,2977.000
3344.000,3276.000,3307.000
3600.000,3669.000,3585.000
3989.000,3954.000,4023.000
4351.000,4375.000,4290.000
4798.000,4754.000,4699.000
5195.000,5104.000,5197.000
5662.000,5564.000,5641.000
6113.000,6016.000,6063.000
6527.000,6502.000,6471.000
6923.000,6880.000,6807.000
7318.000,7204.000,7111.000
7648.000,7594.000,7545.000
7806.000,7836.000,7788.000
8101.000,7968.000,7941.000
8310.000,8316.000,8295.000
8489.000,8380.000,8379.000
8552.000,8565.000,8439.000
8594.000,8574.000,8504.000
8695.000,8585.000,8599.000
8703.000,8686.000,8565.000
8803.000,8700.000,8677.000
8804.000,8668.000,8796.000
8706.000,8739.000,8701.000
8722.000,8622.000,8735.000
8712.000,8708.000,8640.000
8706.000,8677.000,8694.000
8707.000,8623.000,8689.000
8811.000,8761.000,8710.000
8740.000,8629.000,8645.000
8714.000,8701.000,8679.000
8727.000,8702.000,8690.000
8718.000,8748.000,8636.000
8662.000,8689.000,8713.000
8763.000,8800.000,8677.000
8773.000,8730.000,8738.000
8798.000,8714.000,8769.000
8810.000,8786.000,8710.000
8679.000,8757.000,8703.000
8777.000,8809.000,8693.000
8837.000,8776.000,8693.000
8757.000,8740.000,8706.000
8804.000,8805.000,8710.000
8828.000,8746.000,8790.000
8798.000,8780.000,8803.000
8830.000,8750.000,8696.000
8763.000,8745.000,8663.000
8790.000,8835.000,8794.000
8889.000,8802.000,8749.000
8882.000,8811.000,8796.000
8863.000,8737.000,8832.000
8864.000,8724.000,8779.000
8794.000,8868.000,8787.000
8895.000,8750.000,8785.000
8835.000,8851.000,8737.000
8930.000,8775.000,8839.000
8849.000,8825.000,8799.000
8871.000,8881.000,8705.000
8943.000,8905.000,8801.000
8887.000,8944.000,8796.000
8883.000,8904.000,8822.000
8921.000,8844.000,8952.000
8985.000,8869.000,8938.000
9012.000,8841.000,8885.000
9005.000,8918.000,8873.000
9011.000,8966.000,9018.000
9105.000,9029.000,8946.000
9131.000,9064.000,9060.000
9111.000,8992.000,8965.000
9118.000,9183.000,9089.000
9105.000,9109.000,9052.000
9148.000,9121.000,8976.000
9043.000,9107.000,9074.000
9127.000,9141.000,9049.000
9159.000,9119.000,9049.000
9294.000,9165.000,9116.000
9212.000,9243.000,9077.000
9228.000,9101.000,9113.000
9223.000,9191.000,9221.000
9264.000,9225.000,9205.000
9228.000,9249.000,9191.000
9287.000,9238.000,9238.000
9320.000,9264.000,9170.000
9311.000,9235.000,9253.000
9282.000,9259.000,9171.000
9312.000,9301.000,9216.000
9402.000,9393.000,9370.000
9379.000,9342.000,9232.000
9347.000,9277.000,9368.000
9400.000,9312.000,9362.000
9422.000,9248.000,9189.000
9270.000,9153.000,9274.000
9253.000,9283.000,9172.000
9321.000,9237.000,9212.000
9369.000,9339.000,9244.000
9392.000,9314.000,9275.000
9394.000,9390.000,9275.000
9369.000,9287.000,9314.000
9386.000,9381.000,9280.000
9361.000,9356.000,9253.000
9448.000,9425.000,9312.000
9528.000,9333.000,9354.000
9422.000,9359.000,9318.000
9386.000,9396.000,9280.000
9412.000,9406.000,9300.000
9453.000,9388.000,9336.000
9380.000,9484.000,9384.000
9438.000,9270.000,9362.000
9577.000,9451.000,9447.000
9426.000,9431.000,9362.000
9440.000,9403.000,9283.000
9473.000,9448.000,9483.000
9420.000,9415.000,9467.000
9425.000,9522.000,9460.000
9553.000,9521.000,9457.000
9525.000,9491.000,9516.000
9512.000,9487.000,9449.000
9669.000,9514.000,9626.000
9652.000,9550.000,9544.000
9645.000,9598.000,9550.000
9550.000,9576.000,9615.000
9571.000,9603.000,9659.000
9652.000,9623.000,9552.000
9816.000,9690.000,9637.000
9675.000,9697.000,9606.000
9615.000,9589.000,9654.000
9667.000,9666.000,9695.000
9724.000,9665.000,9599.000
9741.000,9624.000,9589.000
9741.000,9729.000,9629.000
9792.000,9683.000,9771.000
9771.000,9607.000,9595.000
9728.000,9642.000,9644.000
9678.000,9704.000,9692.000
9735.000,9754.000,9751.000
9699.000,9638.000,9770.000
9771.000,9709.000,9671.000
9840.000,9811.000,9798.000
9793.000,9713.000,9834.000
9871.000,9781.000,9817.000
9852.000,9700.000,9802.000
9740.000,9713.000,9693.000
9845.000,9751.000,9722.000
9804.000,9785.000,9724.000
9924.000,9794.000,9687.000
9864.000,9751.000,9788.000
9813.000,9766.000,9627.000
9735.000,9692.000,9768.000
9806.000,9740.000,9676.000
9841.000,9663.000,9780.000
9819.000,9783.000,9742.000
9879.000,9764.000,9858.000
9879.000,9798.000,9784.000
9891.000,9831.000,9704.000
9835.000,9695.000,9697.000
9824.000,9722.000,9757.000
9840.000,9775.000,9698.000
9799.000,9710.000,9701.000
9799.000,9729.000,9691.000
9849.000,9849.000,9797.000
9820.000,9840.000,9843.000
9890.000,9856.000,9666.000
9806.000,9895.000,9835.000
10000.000,9872.000,9771.000
9823.000,9824.000,9782.000
9874.000,9761.000,9810.000
9892.000,9842.000,9800.000
9882.000,9849.000,9859.000
9922.000,9840.000,9697.000
9835.000,9756.000,9767.000
9891.000,9791.000,9684.000
9732.000,9766.000,9709.000
9839.000,9848.000,9745.000
9851.000,9842.000,9776.000
9834.000,9817.000,9856.000
9890.000,9798.000,9828.000
9951.000,9882.000,9777.000
9984.000,9909.000,9880.000
9916.000,9842.000,9875.000
10031.000,9864.000,9868.000
9985.000,9902.000,9910.000
9985.000,9900.000,9858.000
10064.000,9940.000,9834.000
9930.000,9970.000,9987.000
10071.000,9977.000,10011.000
10068.000,9902.000,9975.000
10027.000,9960.000,9919.000
9995.000,9992.000,9996.000
9939.000,9953.000,9916.000
10086.000,9941.000,9914.000
10054.000,9985.000,9901.000
10079.000,10119.000,9981.000
10113.000,10103.000,10073.000
10152.000,10055.000,9904.000
10094.000,9957.000,9933.000
10098.000,9986.000,9958.000
10040.000,9852.000,9932.000
10072.000,10033.000,9963.000
10008.000,9897.000,9837.000
9931.000,9915.000,9873.000
9900.000,9869.000,9813.000
9880.000,9794.000,9849.000
9980.000,9740.000,9777.000
9947.000,9772.000,9706.000
9789.000,9782.000,9761.000
9717.000,9779.000,9704.000
9794.000,9727.000,9762.000
9718.000,9648.000,9626.000
9821.000,9734.000,9641.000
9730.000,9670.000,9633.000
9803.000,9577.000,9553.000
9770.000,9574.000,9683.000
9643.000,9642.000,9636.000
9721.000,9521.000,9653.000
9612.000,9666.000,9480.000
9663.000,9687.000,9651.000
9611.000,9589.000,9625.000
9733.000,9583.000,9567.000
9626.000,9685.000,9663.000
9677.000,9557.000,9542.000
9594.000,9595.000,9534.000
9674.000,9602.000,9429.000
9647.000,9532.000,9492.000
9611.000,9494.000,9439.000
9583.000,9524.000,9545.000
9535.000,9597.000,9460.000
9496.000,9532.000,9432.000
9601.000,9449.000,9502.000
9622.000,9476.000,9393.000
9509.000,9474.000,9499.000
9545.000,9521.000,9446.000
9485.000,9430.000,9377.000
9584.000,9391.000,9580.000
9582.000,9474.000,9416.000
9521.000,9377.000,9438.000
9517.000,9473.000,9391.000
9511.000,9387.000,9300.000
9508.000,9500.000,9450.000
9583.000,9483.000,9382.000
9560.000,9475.000,9476.000
9578.000,9531.000,9509.000
9591.000,9524.000,9493.000
9605.000,9545.000,9483.000
9581.000,9502.000,9450.000
9704.000,9627.000,9541.000
9583.000,9637.000,9523.000
9723.000,9595.000,9496.000
9672.000,9499.000,9447.000
9691.000,9568.000,9552.000
9744.000,9610.000,9518.000
9668.000,9559.000,9546.000
9798.000,9696.000,9558.000
9717.000,9606.000,9510.000
9658.000,9570.000,9442.000
9700.000,9505.000,9539.000
9783.000,9569.000,9421.000
9683.000,9567.000,9678.000
9631.000,9595.000,9490.000
9767.000,9671.000,9527.000
9841.000,9603.000,9724.000
9681.000,9650.000,9616.000
9640.000,9694.000,9556.000
9699.000,9518.000,9591.000
9779.000,9542.000,9522.000
9724.000,9659.000,9567.000
9735.000,9598.000,9616.000
9635.000,9593.000,9608.000
9590.000,9511.000,9484.000
9607.000,9487.000,9583.000
9555.000,9510.000,9500.000
9586.000,9493.000,9519.000
9719.000,9652.000,9646.000
9671.000,9600.000,9608.000
9764.000,9637.000,9622.000
9775.000,9709.000,9709.000
9765.000,9595.000,9776.000
9812.000,9681.000,9615.000
9772.000,9684.000,9602.000
9701.000,9719.000,9686.000
9800.000,9767.000,9549.000
9808.000,9680.000,9635.000
9706.000,9735.000,9619.000
9669.000,9623.000,9593.000
9666.000,9656.000,9523.000
9703.000,9510.000,9489.000
9628.000,9492.000,9578.000
9500.000,9510.000,9536.000
9549.000,9473.000,9498.000
9663.000,9498.000,9578.000
9583.000,9520.000,9491.000
9576.000,9553.000,9433.000
9621.000,9592.000,9463.000
9458.000,9446.000,9503.000
9553.000,9514.000,9513.000
9575.000,9487.000,9463.000
9563.000,9473.000,9415.000
9490.000,9516.000,9462.000
9527.000,9414.000,9432.000
9646.000,9395.000,9361.000
9564.000,9451.000,9376.000
9478.000,9346.000,9321.000
9510.000,9405.000,9307.000
9458.000,9511.000,9358.000
9560.000,9393.000,9449.000
9416.000,9311.000,9306.000
9518.000,9403.000,9347.000
9465.000,9384.000,9338.000
9517.000,9292.000,9427.000
9576.000,9473.000,9368.000
9576.000,9556.000,9383.000
9580.000,9475.000,9554.000
9551.000,9453.000,9409.000
9547.000,9470.000,9423.000
9561.000,9480.000,9506.000
9569.000,9587.000,9415.000
9407.000,9498.000,9387.000
9599.000,9468.000,9302.000
9594.000,9440.000,9370.000
9416.000,9442.000,9386.000
9413.000,9412.000,9380.000
9455.000,9382.000,9340.000
9448.000,9405.000,9375.000
9556.000,9395.000,9306.000
9471.000,9387.000,9403.000
9429.000,9497.000,9338.000
9509.000,9460.000,9335.000
9526.000,9313.000,9372.000
9542.000,9422.000,9419.000
9516.000,9419.000,9390.000
9477.000,9582.000,9512.000
9635.000,9357.000,9503.000
9655.000,9415.000,9393.000
9550.000,9456.000,9451.000
9540.000,9425.000,9359.000
9417.000,9443.000,9472.000
9532.000,9520.000,9440.000
9471.000,9508.000,9431.000
9544.000,9408.000,9444.000
9568.000,9412.000,9386.000
9528.000,9503.000,9471.000
9528.000,9442.000,9405.000
9604.000,9386.000,9435.000
9473.000,9477.000,9480.000
9532.000,9381.000,9435.000
9404.000,9477.000,9426.000
9550.000,9457.000,9506.000
9505.000,9430.000,9414.000
9473.000,9521.000,9409.000
9578.000,9419.000,9524.000
9466.000,9499.000,9432.000
9465.000,9483.000,9397.000
9475.000,9503.000,9462.000
9542.000,9457.000,9363.000
9517.000,9443.000,9424.000
9477.000,9460.000,9489.000
9514.000,9406.000,9362.000
9580.000,9384.000,9400.000
9588.000,9447.000,9401.000
9448.000,9452.000,9416.000
9479.000,9445.000,9321.000
9463.000,9363.000,9406.000
9379.000,9423.000,9375.000
9579.000,9414.000,9351.000
9547.000,9403.000,9427.000
9506.000,9532.000,9395.000
9508.000,9389.000,9404.000
9509.000,9481.000,9456.000
9530.000,9395.000,9310.000
9527.000,9533.000,9344.000
9535.000,9429.000,9420.000
9490.000,9554.000,9397.000
9559.000,9458.000,9506.000
9520.000,9530.000,9385.000
9534.000,9480.000,9424.000
9484.000,9495.000,9494.000
9467.000,9466.000,9505.000
9562.000,9464.000,9335.000
9556.000,9441.000,9395.000
9494.000,9467.000,9457.000
9536.000,9504.000,9447.000
9568.000,9441.000,9447.000
9460.000,9453.000,9381.000
9524.000,9424.000,9355.000
9557.000,9476.000,9347.000
9522.000,9390.000,9327.000
9558.000,9444.000,9337.000
9463.000,9397.000,9383.000
9502.000,9478.000,9366.000
9406.000,9344.000,9313.000
9504.000,9449.000,9338.000
9482.000,9446.000,9326.000
9468.000,9406.000,9419.000
9494.000,9405.000,9410.000
9477.000,9361.000,9397.000
9521.000,9391.000,9354.000
9501.000,9425.000,9331.000
9511.000,9402.000,9337.000
9450.000,9414.000,9373.000
9424.000,9479.000,9379.000
9535.000,9516.000,9441.000
9499.000,9519.000,9415.000
9574.000,9390.000,9381.000
9486.000,9425.000,9329.000
9496.000,9393.000,9382.000
9488.000,9412.000,9430.000
9550.000,9372.000,9299.000
9469.000,9393.000,9447.000
9546.000,9480.000,9417.000
9469.000,9371.000,9319.000
9506.000,9315.000,9298.000
9422.000,9432.000,9263.000
9433.000,9466.000,9290.000
9419.000,9372.000,9348.000
9398.000,9391.000,9319.000
9475.000,9446.000,9312.000
9480.000,9373.000,9428.000
9494.000,9384.000,9436.000
9530.000,9378.000,9421.000
9463.000,9434.000,9349.000
9422.000,9345.000,9430.000
9439.000,9425.000,9321.000
9453.000,9401.000,9258.000
9359.000,9381.000,9310.000
9378.000,9275.000,9345.000
9422.000,9231.000,9309.000
9409.000,9286.000,9368.000
9440.000,9411.000,9205.000
9363.000,9291.000,9342.000
9416.000,9319.000,9259.000
9260.000,9342.000,9309.000
9326.000,9266.000,9339.000
9310.000,9318.000,9283.000
9390.000,9292.000,9269.000
9388.000,9387.000,9221.000
9384.000,9327.000,9391.000
9499.000,9378.000,9263.000
9470.000,9332.000,9277.000
9469.000,9416.000,9295.000
9444.000,9357.000,9268.000
9429.000,9462.000,9308.000
9430.000,9324.000,9411.000
9396.000,9401.000,9276.000
9464.000,9289.000,9407.000
9338.000,9351.000,9359.000
9332.000,9338.000,9263.000
9407.000,9267.000,9374.000
9369.000,9338.000,9264.000
9366.000,9393.000,9278.000
9357.000,9276.000,9317.000
9416.000,9315.000,9316.000
9363.000,9403.000,9322.000
9440.000,9317.000,9378.000
9450.000,9321.000,9214.000
9408.000,9381.000,9227.000
9348.000,9311.000,9330.000
9371.000,9218.000,9354.000
9424.000,9451.000,9325.000
9438.000,9397.000,9325.000
9418.000,9344.000,9400.000
9388.000,9412.000,9268.000
9508.000,9386.000,9348.000
9445.000,9431.000,9324.000
9523.000,9363.000,9348.000
9635.000,9401.000,9371.000
9496.000,9410.000,9382.000
9474.000,9444.000,9368.000
9422.000,9459.000,9259.000
9581.000,9377.000,9435.000
9415.000,9407.000,9389.000
9499.000,9414.000,9405.000
9446.000,9443.000,9435.000
9486.000,9497.000,9434.000
9528.000,9539.000,9437.000
9534.000,9439.000,9465.000
9516.000,9512.000,9469.000
9541.000,9427.000,9395.000
9513.000,9514.000,9384.000
9483.000,9532.000,9474.000
9656.000,9581.000,9392.000
9577.000,9507.000,9421.000
9444.000,9388.000,9473.000
9523.000,9449.000,9446.000
9495.000,9487.000,9410.000
9530.000,9394.000,9383.000
9494.000,9375.000,9424.000
9474.000,9359.000,9357.000
9500.000,9434.000,9387.000
9526.000,9464.000,9438.000
9422.000,9394.000,9358.000
9481.000,9344.000,9332.000
9472.000,9427.000,9346.000
9413.000,9422.000,9274.000
9496.000,9509.000,9348.000
9529.000,9387.000,9452.000
9457.000,9390.000,9423.000
9467.000,9402.000,9443.000
9435.000,9359.000,9387.000
9444.000,9435.000,9332.000
9462.000,9405.000,9377.000
9395.000,9354.000,9395.000
9391.000,9232.000,9316.000
9325.000,9235.000,9227.000
9440.000,9323.000,9240.000
9473.000,9371.000,9309.000
9364.000,9384.000,9258.000
9354.000,9347.000,9189.000
9332.000,9382.000,9278.000
9328.000,9198.000,9202.000
9347.000,9341.000,9263.000
9340.000,9280.000,9222.000
9354.000,9272.000,9264.000
9320.000,9145.000,9125.000
9250.000,9154.000,9067.000
9203.000,9223.000,9158.000
9252.000,9181.000,9170.000
9330.000,9188.000,9122.000
9236.000,9113.000,9169.000
9239.000,9156.000,9092.000
9296.000,9232.000,9183.000
9180.000,9091.000,9149.000
9229.000,9110.000,9170.000
9254.000,9146.000,9125.000
9238.000,9055.000,9095.000
9255.000,9232.000,9089.000
9244.000,9235.000,9087.000
9209.000,9074.000,9027.000
9233.000,9184.000,9113.000
9121.000,9057.000,9104.000
9190.000,9105.000,9127.000
9215.000,9107.000,9201.000
9323.000,9133.000,9158.000
9185.000,9124.000,9069.000
9157.000,9129.000,9107.000
9153.000,9162.000,9132.000
9228.000,9163.000,9187.000
9154.000,9114.000,9156.000
9225.000,9155.000,9026.000
9209.000,9025.000,9195.000
9215.000,9132.000,9197.000
9175.000,9087.000,9100.000
9292.000,9227.000,9176.000
9296.000,9134.000,9169.000
9263.000,9197.000,9234.000
9220.000,9137.000,9079.000
9350.000,9276.000,9132.000
9222.000,9152.000,9229.000
9385.000,9205.000,9253.000
9278.000,9135.000,9213.000
9168.000,9197.000,9199.000
9129.000,9167.000,9081.000
9253.000,9130.000,9102.000
9204.000,9206.000,9152.000
9191.000,9228.000,9105.000
9216.000,9096.000,9140.000
9201.000,9147.000,9046.000
9285.000,9192.000,9129.000
9384.000,9203.000,9105.000
9238.000,9122.000,9215.000
9328.000,9207.000,9131.000
9246.000,9161.000,9212.000
9211.000,9328.000,9231.000
9332.000,9157.000,9104.000
9300.000,9228.000,9171.000
9385.000,9184.000,9148.000
9298.000,9270.000,9180.000
9272.000,9327.000,9175.000
9242.000,9214.000,9196.000
9242.000,9269.000,9199.000
9222.000,9171.000,9182.000
9269.000,9102.000,9199.000
9186.000,9060.000,9147.000
9199.000,9163.000,9132.000
9239.000,9082.000,9006.000
9258.000,9184.000,9078.000
9160.000,9083.000,9147.000
9169.000,9010.000,9147.000
9068.000,9108.000,9031.000
9200.000,8983.000,9038.000
9059.000,9037.000,9074.000
9154.000,9073.000,8989.000
9128.000,8950.000,8892.000
9052.000,9012.000,9009.000
9084.000,9042.000,9072.000
9056.000,8992.000,9024.000
9013.000,8969.000,9034.000
9091.000,8980.000,8876.000
9066.000,9036.000,8986.000
8982.000,8956.000,8896.000
9042.000,8970.000,8902.000
9073.000,8884.000,8931.000
8939.000,8889.000,8950.000
8999.000,8970.000,9052.000
8958.000,8931.000,8868.000
9041.000,8946.000,8893.000
9005.000,8827.000,8920.000
9002.000,9004.000,8906.000
8930.000,8951.000,8963.000
8899.000,8888.000,8828.000
8967.000,8908.000,8863.000
8899.000,8868.000,8757.000
8924.000,8966.000,8815.000
8990.000,8898.000,8838.000
8960.000,8849.000,8840.000
8892.000,8808.000,8845.000
8841.000,8830.000,8791.000
8910.000,8870.000,8874.000
8912.000,8782.000,8803.000
8913.000,8763.000,8891.000
8977.000,8808.000,8843.000
8815.000,8839.000,8847.000
8882.000,8838.000,8783.000
8912.000,8868.000,8712.000
8852.000,8800.000,8849.000
8764.000,8619.000,8784.000
8855.000,8746.000,8804.000
8881.000,8702.000,8662.000
8847.000,8742.000,8784.000
8920.000,8877.000,8781.000
8903.000,8762.000,8810.000
8850.000,8800.000,8757.000
8993.000,8871.000,8957.000
8965.000,8929.000,8921.000
8888.000,8872.000,8939.000
9026.000,8946.000,8943.000
8985.000,8880.000,8799.000
8938.000,8913.000,8964.000
8997.000,8814.000,8816.000
8963.000,8839.000,8775.000
8803.000,8786.000,8822.000
8921.000,8796.000,8774.000
8822.000,8770.000,8695.000
8821.000,8739.000,8702.000
8816.000,8747.000,8731.000
8863.000,8749.000,8737.000
8700.000,8688.000,8739.000
8696.000,8662.000,8628.000
8750.000,8666.000,8601.000
8714.000,8643.000,8606.000
8641.000,8615.000,8603.000
8688.000,8703.000,8757.000
8764.000,8600.000,8675.000
8689.000,8659.000,8658.000
8727.000,8697.000,8609.000
8701.000,8687.000,8648.000
8718.000,8700.000,8608.000
8757.000,8643.000,8626.000
8815.000,8708.000,8625.000
8794.000,8701.000,8668.000
8651.000,8682.000,8688.000
8773.000,8610.000,8591.000
8784.000,8701.000,8681.000
8795.000,8585.000,8611.000
8708.000,8622.000,8541.000
8671.000,8745.000,8569.000
8725.000,8694.000,8590.000
8658.000,8591.000,8651.000
8648.000,8527.000,8497.000
8616.000,8502.000,8609.000
8631.000,8643.000,8532.000
8733.000,8569.000,8601.000
8645.000,8526.000,8483.000
8655.000,8595.000,8565.000
8575.000,8612.000,8489.000
8558.000,8506.000,8524.000
8656.000,8571.000,8522.000
8621.000,8506.000,8471.000
8479.000,8448.000,8374.000
8575.000,8433.000,8407.000
8482.000,8487.000,8504.000
8467.000,8466.000,8339.000
8499.000,8383.000,8359.000
8421.000,8428.000,8421.000
8527.000,8392.000,8364.000
8532.000,8479.000,8463.000
8457.000,8457.000,8373.000
8484.000,8348.000,8372.000
8511.000,8405.000,8404.000
8467.000,8396.000,8405.000
8418.000,8298.000,8345.000
8529.000,8352.000,8321.000
8401.000,8439.000,8349.000
8503.000,8372.000,8373.000
8339.000,8346.000,8319.000
8510.000,8386.000,8320.000
8411.000,8368.000,8364.000
8367.000,8283.000,8250.000
8446.000,8330.000,8313.000
8352.000,8343.000,8247.000
8390.000,8329.000,8323.000
8364.000,8321.000,8295.000
8439.000,8270.000,8340.000
8370.000,8308.000,8174.000
8286.000,8177.000,8179.000
8238.000,8232.000,8163.000
8216.000,8170.000,8115.000
8305.000,8210.000,8079.000
8244.000,8175.000,8134.000
8120.000,8093.000,8038.000
8178.000,8080.000,8047.000
8144.000,8170.000,8032.000
8180.000,8125.000,8142.000
8200.000,8159.000,8066.000
8035.000,8127.000,8009.000
8262.000,8103.000,8164.000
8194.000,8139.000,8050.000
8162.000,8073.000,8156.000
8117.000,8065.000,8086.000
8140.000,8059.000,7937.000
8096.000,8099.000,8134.000
8112.000,8144.000,7942.000
8101.000,8002.000,8063.000
8101.000,8057.000,8019.000
8078.000,8162.000,7982.000
8057.000,8031.000,8027.000
8089.000,7990.000,7935.000
8001.000,7923.000,7903.000
7944.000,7961.000,8032.000
8026.000,7925.000,7858.000
8031.000,7970.000,7934.000
7925.000,7852.000,7852.000
7957.000,7875.000,7885.000
7961.000,7877.000,7821.000
7930.000,7818.000,7873.000
7862.000,7860.000,7750.000
7878.000,7798.000,7766.000
7792.000,7785.000,7739.000
7883.000,7778.000,7727.000
7959.000,7785.000,7809.000
7870.000,7781.000,7823.000
7818.000,7769.000,7823.000
7764.000,7835.000,7796.000
7781.000,7733.000,7810.000
7852.000,7837.000,7800.000
7904.000,7798.000,7734.000
7842.000,7779.000,7717.000
7916.000,7769.000,7793.000
7829.000,7850.000,7789.000
7873.000,7828.000,7747.000
7799.000,7795.000,7729.000
7893.000,7853.000,7713.000
7825.000,7741.000,7771.000
7821.000,7637.000,7667.000
7840.000,7762.000,7657.000
7802.000,7630.000,7597.000
7755.000,7639.000,7631.000
7594.000,7603.000,7612.000
7622.000,7599.000,7635.000
7610.000,7539.000,7570.000
7557.000,7515.000,7454.000
7523.000,7571.000,7535.000
7617.000,7380.000,7465.000
7532.000,7379.000,7444.000
7508.000,7479.000,7406.000
7508.000,7527.000,7462.000
7471.000,7470.000,7506.000
7494.000,7447.000,7412.000
7372.000,7358.000,7409.000
7439.000,7257.000,7301.000
7397.000,7374.000,7297.000
7425.000,7366.000,7328.000
7395.000,7276.000,7394.000
7395.000,7355.000,7341.000
7396.000,7370.000,7342.000
7473.000,7357.000,7337.000
7480.000,7318.000,7386.000
7533.000,7411.000,7412.000
7484.000,7467.000,7430.000
7422.000,7277.000,7319.000
7419.000,7369.000,7359.000
7413.000,7313.000,7442.000
7364.000,7251.000,7271.000
7317.000,7275.000,7218.000
7223.000,7227.000,7220.000
7312.000,7189.000,7144.000
7294.000,7297.000,7211.000
7200.000,7206.000,7276.000
7238.000,7144.000,7230.000
7216.000,7199.000,7098.000
7228.000,7084.000,7104.000
7163.000,7178.000,7039.000
7076.000,7058.000,7139.000
7170.000,7062.000,7020.000
7119.000,7058.000,6964.000
7025.000,6963.000,6980.000
7039.000,7038.000,7098.000
7044.000,6920.000,6980.000
7092.000,7038.000,7010.000
7066.000,7031.000,7009.000
7127.000,7026.000,7014.000
7191.000,7097.000,7119.000
7156.000,7078.000,7100.000
7086.000,7000.000,6987.000
7114.000,7065.000,7039.000
7100.000,7031.000,7057.000
7075.000,7071.000,7114.000
7036.000,7026.000,7049.000
7107.000,7016.000,7006.000
7107.000,7019.000,6980.000
7096.000,6914.000,6984.000
7009.000,6995.000,6934.000
7092.000,6992.000,6967.000
7077.000,6929.000,6919.000
7058.000,7009.000,7056.000
6946.000,6948.000,6995.000
7055.000,7007.000,7013.000
7031.000,6960.000,6993.000
7062.000,6949.000,7051.000
7043.000,7010.000,6997.000
7078.000,6998.000,7053.000
7099.000,7050.000,7004.000
7038.000,7062.000,7021.000
7100.000,7026.000,7067.000
7044.000,6965.000,6988.000
7051.000,6954.000,6916.000
6940.000,6986.000,6921.000
7042.000,6955.000,6955.000
7007.000,6919.000,6969.000
6987.000,6883.000,6914.000
6953.000,6926.000,6845.000
6985.000,6936.000,6873.000
6931.000,6876.000,6909.000
6833.000,6869.000,6864.000
6875.000,6820.000,6817.000
6874.000,6882.000,6802.000
6845.000,6812.000,6758.000
6856.000,6868.000,6806.000
6899.000,6931.000,6843.000
6969.000,6954.000,6955.000
7031.000,6853.000,6849.000
6950.000,6846.000,6879.000
6967.000,6999.000,6869.000
6989.000,6830.000,6948.000
6962.000,6973.000,6872.000
6894.000,6804.000,6778.000
6946.000,6866.000,6865.000
6902.000,6754.000,6755.000
6809.000,6863.000,6778.000
6841.000,6761.000,6704.000
6845.000,6816.000,6754.000
6853.000,6832.000,6847.000
6843.000,6872.000,6809.000
6896.000,6874.000,6847.000
7042.000,6912.000,6875.000
6882.000,6976.000,6812.000
6925.000,6839.000,6885.000
6994.000,6859.000,6868.000
6973.000,6952.000,6905.000
6881.000,6868.000,6875.000
6836.000,6915.000,6834.000
6894.000,6866.000,6842.000
6811.000,6837.000,6848.000
6884.000,6853.000,6776.000
6852.000,6800.000,6727.000
6842.000,6757.000,6756.000
6856.000,6792.000,6828.000
6788.000,6729.000,6870.000
6889.000,6720.000,6840.000
6928.000,6791.000,6835.000
6916.000,6865.000,6907.000
6947.000,6872.000,6805.000
6883.000,6905.000,6871.000
6909.000,6875.000,6835.000
6971.000,6948.000,6838.000
6912.000,6837.000,6767.000
6849.000,6783.000,6843.000
6838.000,6782.000,6778.000
6814.000,6776.000,6775.000
6743.000,6818.000,6773.000
6883.000,6742.000,6768.000
6731.000,6797.000,6846.000
6910.000,6830.000,6745.000
6892.000,6722.000,6827.000
6928.000,6855.000,6876.000
6942.000,6858.000,6740.000
6960.000,6876.000,6904.000
6979.000,6990.000,6831.000
7059.000,6889.000,6976.000
7016.000,6900.000,6895.000
7013.000,6891.000,6959.000
6973.000,6946.000,6906.000
6928.000,6877.000,6900.000
6876.000,6783.000,6808.000
6902.000,6850.000,6780.000
6858.000,6865.000,6820.000
6782.000,6744.000,6773.000
6880.000,6757.000,6788.000
6755.000,6715.000,6767.000
6753.000,6802.000,6744.000
6836.000,6787.000,6766.000
6901.000,6786.000,6806.000
6856.000,6925.000,6767.000
6925.000,6871.000,6764.000
7003.000,6754.000,6824.000
6845.000,6806.000,6934.000
6867.000,6844.000,6899.000
6908.000,6860.000,6875.000
6912.000,6810.000,6902.000
6825.000,6804.000,6878.000
6880.000,6779.000,6799.000
6872.000,6809.000,6792.000
6875.000,6899.000,6819.000
6872.000,6846.000,6793.000
6764.000,6792.000,6771.000
6816.000,6732.000,6695.000
6876.000,6746.000,6700.000
6817.000,6702.000,6748.000
6759.000,6732.000,6727.000
6793.000,6745.000,6843.000
6846.000,6715.000,6766.000
6807.000,6820.000,6716.000
6778.000,6688.000,6783.000
6794.000,6805.000,6772.000
6895.000,6704.000,6872.000
6867.000,6786.000,6806.000
6837.000,6895.000,6822.000
6899.000,6816.000,6765.000
6954.000,6929.000,6786.000
6925.000,6810.000,6833.000
6922.000,6855.000,6956.000
6994.000,6853.000,6815.000
6883.000,6825.000,6825.000
6880.000,6797.000,6821.000
6817.000,6791.000,6795.000
6859.000,6833.000,6839.000
6804.000,6769.000,6736.000
6788.000,6783.000,6747.000
6821.000,6775.000,6865.000
6813.000,6790.000,6742.000
6742.000,6656.000,6620.000
6788.000,6723.000,6695.000
6764.000,6665.000,6647.000
6722.000,6662.000,6702.000
6647.000,6672.000,6682.000
6767.000,6688.000,6669.000
6707.000,6760.000,6579.000
6738.000,6635.000,6685.000
6748.000,6671.000,6644.000
6751.000,6754.000,6676.000
6731.000,6770.000,6636.000
6784.000,6685.000,6692.000
6822.000,6737.000,6722.000
6764.000,6750.000,6738.000
6785.000,6767.000,6750.000
6832.000,6640.000,6709.000
6767.000,6681.000,6708.000
6747.000,6752.000,6706.000
6744.000,6609.000,6664.000
6691.000,6659.000,6680.000
6693.000,6618.000,6604.000
6639.000,6672.000,6730.000
6684.000,6642.000,6536.000
6586.000,6558.000,6562.000
6575.000,6480.000,6511.000
6515.000,6553.000,6428.000
6506.000,6521.000,6483.000
6543.000,6503.000,6416.000
6523.000,6455.000,6407.000
6543.000,6469.000,6391.000
6443.000,6421.000,6454.000
6500.000,6442.000,6413.000
6511.000,6483.000,6367.000
6525.000,6428.000,6368.000
6466.000,6337.000,6496.000
6487.000,6394.000,6401.000
6477.000,6421.000,6395.000
6472.000,6379.000,6462.000
6448.000,6452.000,6427.000
6440.000,6397.000,6444.000
6578.000,6479.000,6449.000
6526.000,6483.000,6344.000
6411.000,6413.000,6376.000
6557.000,6431.000,6401.000
6490.000,6390.000,6392.000
6453.000,6401.000,6364.000
6474.000,6402.000,6327.000
6456.000,6419.000,6292.000
6397.000,6364.000,6356.000
6344.000,6390.000,6373.000
6372.000,6379.000,6278.000
6426.000,6329.000,6311.000
6311.000,6339.000,6333.000
6370.000,6341.000,6268.000
6327.000,6330.000,6326.000
6360.000,6281.000,6290.000
6369.000,6300.000,6263.000
6321.000,6332.000,6143.000
6320.000,6212.000,6239.000
6275.000,6157.000,6134.000
6194.000,6251.000,6194.000
6279.000,6300.000,6139.000
6220.000,6226.000,6208.000
6261.000,6208.000,6233.000
6240.000,6200.000,6110.000
6161.000,6156.000,6185.000
6187.000,6187.000,6114.000
6213.000,6105.000,6132.000
6152.000,6155.000,6061.000
6180.000,6163.000,6183.000
6126.000,6149.000,6156.000
6149.000,6110.000,6152.000
6132.000,6112.000,6104.000
6216.000,6124.000,6093.000
6178.000,6249.000,6095.000
6257.000,6137.000,6222.000
6202.000,6160.000,6235.000
6212.000,6220.000,6152.000
6212.000,6131.000,6126.000
6194.000,6167.000,6120.000
6157.000,6184.000,6161.000
6152.000,6148.000,6124.000
6183.000,6182.000,6208.000
6141.000,6211.000,6115.000
6213.000,6193.000,6148.000
6226.000,6191.000,6130.000
6136.000,6174.000,6094.000
6193.000,6036.000,6096.000
6176.000,6100.000,6054.000
6149.000,6057.000,6111.000
6071.000,6044.000,6026.000
6141.000,6032.000,6027.000
6149.000,6051.000,5979.000
6005.000,6058.000,5975.000
6015.000,6047.000,6057.000
6027.000,5966.000,6018.000
6088.000,5980.000,5961.000
5971.000,5990.000,5948.000
5900.000,5978.000,5950.000
5935.000,5898.000,5940.000
5982.000,5917.000,5942.000
5875.000,5951.000,5898.000
5942.000,5952.000,5886.000
5899.000,5915.000,5890.000
5950.000,5895.000,5899.000
5847.000,5878.000,5887.000
5933.000,5898.000,5894.000
5999.000,5973.000,5902.000
5947.000,5884.000,5883.000
5990.000,5959.000,5930.000
5951.000,5936.000,5886.000
6007.000,5933.000,5882.000
6016.000,6016.000,5886.000
5992.000,5937.000,5987.000
6024.000,5965.000,5951.000
6025.000,6034.000,6031.000
6044.000,6009.000,5959.000
5984.000,5946.000,5959.000
6033.000,5998.000,5963.000
6002.000,5999.000,6046.000
5967.000,5953.000,5906.000
6007.000,5990.000,5938.000
6007.000,6020.000,5985.000
6024.000,5975.000,6018.000
6010.000,6002.000,5957.000
5938.000,5923.000,5860.000
6013.000,5945.000,5925.000
5967.000,5960.000,5884.000
5922.000,5958.000,5947.000
5947.000,5885.000,5919.000
5869.000,5936.000,5846.000
5989.000,5863.000,5929.000
5905.000,5877.000,5844.000
5893.000,5789.000,5886.000
5864.000,5839.000,5787.000
5800.000,5816.000,5760.000
5880.000,5806.000,5806.000
5721.000,5808.000,5751.000
5820.000,5794.000,5728.000
5772.000,5683.000,5717.000
5756.000,5682.000,5695.000
5727.000,5717.000,5763.000
5655.000,5685.000,5674.000
5691.000,5603.000,5642.000
5692.000,5656.000,5644.000
5638.000,5621.000,5587.000
5575.000,5594.000,5565.000
5592.000,5547.000,5598.000
5599.000,5593.000,5595.000
5642.000,5605.000,5583.000
5542.000,5562.000,5512.000
5559.000,5557.000,5528.000
5548.000,5540.000,5499.000
5535.000,5506.000,5500.000
5549.000,5525.000,5436.000
5540.000,5580.000,5441.000
5639.000,5503.000,5509.000
5501.000,5487.000,5503.000
5540.000,5521.000,5465.000
5532.000,5515.000,5447.000
5607.000,5483.000,5455.000
5439.000,5464.000,5432.000
5466.000,5424.000,5454.000
5504.000,5476.000,5414.000
5416.000,5412.000,5382.000
5438.000,5412.000,5399.000
5418.000,5369.000,5326.000
5424.000,5430.000,5335.000
5383.000,5400.000,5341.000
5316.000,5360.000,5374.000
5317.000,5257.000,5304.000
5379.000,5337.000,5259.000
5339.000,5233.000,5282.000
5274.000,5241.000,5250.000
5297.000,5215.000,5186.000
5239.000,5243.000,5121.000
5212.000,5213.000,5146.000
5238.000,5201.000,5097.000
5191.000,5200.000,5157.000
5172.000,5195.000,5147.000
5158.000,5123.000,5133.000
5139.000,5062.000,5089.000
5127.000,5039.000,5039.000
5092.000,5094.000,5089.000
5035.000,5123.000,5124.000
5024.000,5021.000,5107.000
5101.000,4997.000,5019.000
5091.000,4977.000,5000.000
5069.000,4961.000,5006.000
5028.000,5029.000,4933.000
5012.000,4968.000,4981.000
5018.000,4968.000,4947.000
5065.000,4968.000,4948.000
4991.000,4958.000,4901.000
4979.000,4972.000,4924.000
5034.000,4972.000,4928.000
4974.000,4976.000,4930.000
5007.000,4920.000,4918.000
4987.000,4921.000,4964.000
4916.000,4915.000,4952.000
4977.000,4922.000,4925.000
4891.000,4975.000,4889.000
4995.000,4918.000,4879.000
4926.000,4865.000,4941.000
4932.000,4863.000,4861.000
4927.000,4931.000,4933.000
4951.000,4916.000,4849.000
4907.000,4871.000,4865.000
4936.000,4858.000,4821.000
4845.000,4855.000,4848.000
4847.000,4800.000,4842.000
4882.000,4758.000,4747.000
4867.000,4828.000,4776.000
4796.000,4812.000,4780.000
4715.000,4733.000,4763.000
4730.000,4695.000,4770.000
4727.000,4734.000,4698.000
4719.000,4695.000,4688.000
4659.000,4644.000,4680.000
4750.000,4670.000,4645.000
4637.000,4647.000,4678.000
4660.000,4606.000,4638.000
4611.000,4544.000,4599.000
4590.000,4574.000,4575.000
4596.000,4545.000,4556.000
4591.000,4538.000,4495.000
4588.000,4499.000,4572.000
4483.000,4600.000,4502.000
4498.000,4426.000,4459.000
4540.000,4492.000,4478.000
4444.000,4513.000,4413.000
4483.000,4471.000,4458.000
4426.000,4437.000,4434.000
4417.000,4436.000,4463.000
4483.000,4400.000,4464.000
4433.000,4363.000,4411.000
4377.000,4408.000,4358.000
4366.000,4380.000,4400.000
4406.000,4399.000,4392.000
4379.000,4396.000,4408.000
4450.000,4377.000,4384.000
4420.000,4329.000,4379.000
4380.000,4384.000,4360.000
4360.000,4377.000,4370.000
4297.000,4366.000,4367.000
4379.000,4342.000,4343.000
4345.000,4341.000,4316.000
4306.000,4298.000,4311.000
4341.000,4338.000,4320.000
4404.000,4365.000,4315.000
4428.000,4355.000,4374.000
4298.000,4329.000,4316.000
4334.000,4328.000,4287.000
4261.000,4296.000,4285.000
4350.000,4267.000,4257.000
4275.000,4284.000,4229.000
4218.000,4290.000,4281.000
4224.000,4242.000,4172.000
4229.000,4155.000,4196.000
4186.000,4219.000,4186.000
4229.000,4204.000,4168.000
4194.000,4194.000,4142.000
4189.000,4131.000,4154.000
4208.000,4173.000,4164.000
4207.000,4176.000,4119.000
4142.000,4166.000,4124.000
4201.000,4200.000,4163.000
4188.000,4117.000,4170.000
4104.000,4077.000,4108.000
4111.000,4133.000,4096.000
4096.000,4005.000,4132.000
4096.000,4052.000,4007.000
4133.000,4063.000,4152.000
4057.000,4092.000,4076.000
4100.000,4025.000,4144.000
4045.000,4049.000,4025.000
4100.000,4153.000,4079.000
4126.000,3998.000,4009.000
4055.000,4146.000,4070.000
4044.000,4070.000,4064.000
4086.000,4070.000,4096.000
4087.000,4102.000,4091.000
4077.000,4083.000,4126.000
4109.000,4150.000,4119.000
4123.000,4091.000,4134.000
4173.000,4089.000,4079.000
4141.000,4112.000,4192.000
4100.000,4100.000,4119.000
4076.000,4077.000,4131.000
4155.000,4105.000,4142.000
4107.000,4043.000,4081.000
4125.000,4051.000,4117.000
4119.000,4034.000,4054.000
4055.000,4038.000,4113.000
4058.000,4021.000,4078.000
4084.000,3926.000,4047.000
3992.000,3999.000,4040.000
4009.000,3970.000,4017.000
3968.000,3911.000,4032.000
3976.000,3932.000,3936.000
3939.000,3890.000,3961.000
3922.000,3913.000,3958.000
3859.000,3894.000,3906.000
3882.000,3912.000,3912.000
3847.000,3826.000,3826.000
3894.000,3826.000,3863.000
3795.000,3795.000,3823.000
3846.000,3818.000,3778.000
3780.000,3829.000,3773.000
3742.000,3747.000,3799.000
3801.000,3708.000,3760.000
3711.000,3742.000,3698.000
3631.000,3760.000,3734.000
3734.000,3627.000,3686.000
3722.000,3713.000,3687.000
3619.000,3647.000,3697.000
3667.000,3689.000,3677.000
3636.000,3664.000,3652.000
3614.000,3682.000,3680.000
3674.000,3599.000,3600.000
3619.000,3672.000,3604.000
3641.000,3658.000,3605.000
3636.000,3641.000,3675.000
3640.000,3626.000,3632.000
3651.000,3572.000,3625.000
3628.000,3589.000,3592.000
3639.000,3580.000,3603.000
3625.000,3592.000,3670.000
3650.000,3627.000,3587.000
3610.000,3651.000,3690.000
3647.000,3639.000,3687.000
3622.000,3658.000,3593.000
3664.000,3646.000,3675.000
3613.000,3625.000,3644.000
3650.000,3632.000,3620.000
3652.000,3589.000,3623.000
3693.000,3630.000,3605.000
3650.000,3625.000,3642.000
3678.000,3633.000,3597.000
3680.000,3619.000,3611.000
3593.000,3568.000,3623.000
3624.000,3642.000,3612.000
3590.000,3577.000,3595.000
3581.000,3607.000,3631.000
3586.000,3585.000,3568.000
3522.000,3545.000,3541.000
3541.000,3585.000,3550.000
3573.000,3545.000,3498.000
3520.000,3528.000,3489.000
3574.000,3490.000,3483.000
3537.000,3483.000,3512.000
3527.000,3452.000,3445.000
3510.000,3481.000,3460.000
3511.000,3509.000,3503.000
3575.000,3471.000,3471.000
3500.000,3508.000,3482.000
3526.000,3444.000,3508.000
3524.000,3521.000,3491.000
3517.000,3520.000,3555.000
3555.000,3518.000,3497.000
3532.000,3463.000,3520.000
3525.000,3510.000,3519.000
3534.000,3572.000,3478.000
3554.000,3536.000,3528.000
3540.000,3474.000,3533.000
3589.000,3520.000,3524.000
3543.000,3517.000,3531.000
3580.000,3528.000,3499.000
3483.000,3520.000,3505.000
3480.000,3523.000,3519.000
3527.000,3511.000,3510.000
3546.000,3454.000,3505.000
3489.000,3544.000,3484.000
3531.000,3503.000,3515.000
3484.000,3484.000,3463.000
3447.000,3445.000,3491.000
3496.000,3432.000,3421.000
3457.000,3467.000,3403.000
3447.000,3451.000,3411.000
3439.000,3393.000,3389.000
3385.000,3401.000,3427.000
3436.000,3426.000,3411.000
3423.000,3420.000,3380.000
3361.000,3386.000,3388.000
3401.000,3317.000,3319.000
3386.000,3339.000,3354.000
3357.000,3311.000,3353.000
3355.000,3348.000,3363.000
3366.000,3327.000,3392.000
3418.000,3372.000,3342.000
3409.000,3371.000,3374.000
3386.000,3330.000,3363.000
3418.000,3421.000,3355.000
3399.000,3354.000,3362.000
3407.000,3398.000,3354.000
3421.000,3347.000,3404.000
3389.000,3355.000,3404.000
3392.000,3347.000,3368.000
3405.000,3400.000,3368.000
3384.000,3393.000,3387.000
3378.000,3381.000,3399.000
3438.000,3324.000,3372.000
3424.000,3412.000,3378.000
3368.000,3348.000,3378.000
3413.000,3316.000,3396.000
3389.000,3408.000,3336.000
3409.000,3395.000,3328.000
3403.000,3348.000,3339.000
3377.000,3370.000,3359.000
3359.000,3350.000,3333.000
3362.000,3353.000,3321.000
3382.000,3381.000,3288.000
3323.000,3345.000,3331.000
3380.000,3317.000,3258.000
3304.000,3308.000,3330.000
3312.000,3308.000,3329.000
3350.000,3295.000,3281.000
3286.000,3260.000,3275.000
3298.000,3315.000,3253.000
3331.000,3285.000,3283.000
3255.000,3249.000,3228.000
3294.000,3269.000,3255.000
3295.000,3209.000,3204.000
3219.000,3206.000,3211.000
3263.000,3263.000,3218.000
3210.000,3244.000,3217.000
3251.000,3242.000,3185.000
3188.000,3214.000,3239.000
3219.000,3251.000,3174.000
3225.000,3205.000,3197.000
3248.000,3223.000,3221.000
3244.000,3212.000,3211.000
3208.000,3223.000,3236.000
3234.000,3194.000,3241.000
3217.000,3228.000,3195.000
3214.000,3238.000,3257.000
3186.000,3244.000,3265.000
3264.000,3244.000,3248.000
3259.000,3243.000,3234.000
3253.000,3242.000,3252.000
3267.000,3203.000,3232.000
3208.000,3238.000,3250.000
3255.000,3234.000,3247.000
3249.000,3244.000,3244.000
3238.000,3262.000,3254.000
3315.000,3288.000,3250.000
3257.000,3285.000,3222.000
3322.000,3238.000,3182.000
3271.000,3235.000,3242.000
3279.000,3233.000,3240.000
3247.000,3236.000,3264.000
3245.000,3223.000,3220.000
3209.000,3232.000,3224.000
3290.000,3275.000,3271.000
3280.000,3221.000,3244.000
3237.000,3190.000,3215.000
3200.000,3218.000,3214.000
3207.000,3156.000,3213.000
3157.000,3145.000,3168.000
3193.000,3202.000,3143.000
3197.000,3082.000,3168.000
3167.000,3163.000,3136.000
3143.000,3138.000,3126.000
3157.000,3124.000,3152.000
3127.000,3116.000,3120.000
3149.000,3147.000,3106.000
3123.000,3123.000,3108.000
3138.000,3092.000,3094.000
3099.000,3151.000,3078.000
3140.000,3113.000,3079.000
3112.000,3077.000,3046.000
3106.000,3071.000,3060.000
3099.000,3100.000,3119.000
3110.000,3128.000,3103.000
3164.000,3157.000,3127.000
3140.000,3127.000,3141.000
3157.000,3100.000,3169.000
3150.000,3147.000,3179.000
3163.000,3170.000,3169.000
3163.000,3177.000,3147.000
3157.000,3141.000,3104.000
3103.000,3132.000,3093.000
3190.000,3206.000,3148.000
3178.000,3169.000,3145.000
3163.000,3151.000,3134.000
3185.000,3115.000,3165.000
3169.000,3137.000,3130.000
3179.000,3190.000,3135.000
3132.000,3114.000,3161.000
3150.000,3162.000,3139.000
3177.000,3120.000,3135.000
3086.000,3123.000,3108.000
3108.000,3130.000,3102.000
3106.000,3084.000,3081.000
3115.000,3062.000,3037.000
3040.000,3087.000,3052.000
3076.000,3087.000,3052.000
3047.000,3105.000,3045.000
3068.000,3079.000,3059.000
3072.000,3098.000,2987.000
3073.000,3008.000,3030.000
3017.000,2982.000,3047.000
3067.000,3045.000,3042.000
3077.000,3051.000,3014.000
3009.000,3051.000,3009.000
3043.000,3045.000,3082.000
2996.000,3032.000,3004.000
3037.000,3031.000,3037.000
3075.000,3098.000,3066.000
3077.000,3079.000,3010.000
3029.000,3024.000,3056.000
3079.000,3103.000,3038.000
3112.000,3083.000,3076.000
3059.000,3107.000,3067.000
3105.000,3104.000,3081.000
3118.000,3049.000,3056.000
3048.000,3025.000,3041.000
3119.000,3055.000,3076.000
3091.000,3029.000,3064.000
3099.000,3106.000,3080.000
3099.000,3054.000,3056.000
3097.000,3050.000,3039.000
3065.000,3066.000,3068.000
3096.000,3031.000,3014.000
3059.000,3050.000,3038.000
3037.000,3038.000,3056.000
3041.000,2999.000,3009.000
3014.000,2996.000,3043.000
3039.000,3014.000,2952.000
3017.000,2967.000,3015.000
2987.000,2986.000,2965.000
2987.000,3008.000,2967.000
2947.000,2946.000,2935.000
2994.000,2947.000,2950.000
2964.000,2966.000,2982.000
2984.000,2946.000,2936.000
2984.000,2915.000,2927.000
2934.000,2961.000,2902.000
2954.000,2964.000,2903.000
2937.000,2912.000,2927.000
2953.000,2928.000,2927.000
2929.000,2922.000,2912.000
2917.000,2921.000,2920.000
2937.000,2931.000,2878.000
2936.000,2878.000,2924.000
2909.000,2927.000,2908.000
2953.000,2956.000,2882.000
2924.000,2924.000,2889.000
2979.000,2934.000,2901.000
2914.000,2894.000,2951.000
2947.000,2917.000,2925.000
2889.000,2918.000,2968.000
2946.000,2964.000,2920.000
2933.000,2981.000,2927.000
2930.000,2938.000,2882.000
2952.000,2935.000,2945.000
2944.000,2920.000,2948.000
2914.000,2930.000,2936.000
2909.000,2891.000,2884.000
2925.000,2870.000,2936.000
2922.000,2870.000,2912.000
2921.000,2900.000,2908.000
2937.000,2825.000,2891.000
2862.000,2883.000,2858.000
2883.000,2857.000,2878.000
2830.000,2858.000,2828.000
2868.000,2826.000,2808.000
2864.000,2819.000,2856.000
2839.000,2823.000,2838.000
2866.000,2826.000,2834.000
2790.000,2797.000,2789.000
2791.000,2787.000,2765.000
2834.000,2797.000,2770.000
2830.000,2801.000,2767.000
2791.000,2756.000,2775.000
2778.000,2783.000,2784.000
2752.000,2786.000,2759.000
2767.000,2738.000,2755.000
2807.000,2703.000,2726.000
2707.000,2723.000,2728.000
2754.000,2708.000,2728.000
2709.000,2734.000,2722.000
2753.000,2674.000,2747.000
2745.000,2670.000,2689.000
2742.000,2703.000,2688.000
2696.000,2698.000,2685.000
2720.000,2713.000,2681.000
2687.000,2679.000,2704.000
2715.000,2682.000,2676.000
2682.000,2727.000,2721.000
2691.000,2707.000,2686.000
2735.000,2723.000,2657.000
2683.000,2758.000,2670.000
2717.000,2721.000,2683.000
2738.000,2701.000,2716.000
2754.000,2688.000,2721.000
2710.000,2728.000,2707.000
2705.000,2704.000,2706.000
2709.000,2680.000,2699.000
2673.000,2726.000,2693.000
2701.000,2675.000,2633.000
2729.000,2649.000,2656.000
2640.000,2671.000,2686.000
2689.000,2638.000,2657.000
2691.000,2652.000,2675.000
2647.000,2677.000,2672.000
2689.000,2643.000,2642.000
2646.000,2635.000,2627.000
2681.000,2634.000,2630.000
2604.000,2638.000,2655.000
2642.000,2660.000,2652.000
2595.000,2644.000,2605.000
2628.000,2652.000,2630.000
2636.000,2580.000,2590.000
2620.000,2560.000,2630.000
2601.000,2573.000,2564.000
2572.000,2613.000,2582.000
2516.000,2532.000,2559.000
2538.000,2539.000,2555.000
2574.000,2543.000,2510.000
2554.000,2519.000,2498.000
2517.000,2523.000,2501.000
2516.000,2462.000,2535.000
2495.000,2498.000,2479.000
2516.000,2475.000,2479.000
2484.000,2488.000,2500.000
2522.000,2476.000,2464.000
2494.000,2487.000,2451.000
2468.000,2460.000,2491.000
2471.000,2443.000,2436.000
2466.000,2479.000,2465.000
2489.000,2442.000,2466.000
2523.000,2498.000,2484.000
2449.000,2513.000,2444.000
2456.000,2468.000,2473.000
2465.000,2520.000,2487.000
2480.000,2511.000,2496.000
2467.000,2473.000,2447.000
2520.000,2501.000,2495.000
2489.000,2502.000,2484.000
2491.000,2512.000,2471.000
2452.000,2487.000,2429.000
2485.000,2495.000,2445.000
2516.000,2458.000,2491.000
2441.000,2477.000,2441.000
2475.000,2490.000,2451.000
2449.000,2460.000,2437.000
2483.000,2479.000,2441.000
2451.000,2488.000,2439.000
2469.000,2461.000,2437.000
2428.000,2400.000,2429.000
2493.000,2456.000,2455.000
2440.000,2436.000,2406.000
2405.000,2405.000,2386.000
2385.000,2399.000,2349.000
2413.000,2404.000,2397.000
2438.000,2431.000,2422.000
2371.000,2385.000,2373.000
2415.000,2406.000,2355.000
2342.000,2352.000,2388.000
2404.000,2361.000,2400.000
2399.000,2377.000,2330.000
2321.000,2325.000,2344.000
2323.000,2292.000,2332.000
2280.000,2326.000,2302.000
2333.000,2298.000,2317.000
2311.000,2295.000,2306.000
2310.000,2319.000,2318.000
2292.000,2315.000,2283.000
2286.000,2279.000,2256.000
2235.000,2218.000,2243.000
2252.000,2251.000,2256.000
2283.000,2245.000,2256.000
2299.000,2275.000,2278.000
2251.000,2278.000,2243.000
2253.000,2234.000,2244.000
2231.000,2244.000,2227.000
2241.000,2226.000,2253.000
2273.000,2208.000,2238.000
2231.000,2234.000,2233.000
2213.000,2218.000,2207.000
2256.000,2227.000,2249.000
2226.000,2208.000,2234.000
2227.000,2229.000,2235.000
2234.000,2189.000,2254.000
2233.000,2221.000,2219.000
2236.000,2217.000,2208.000
2186.000,2242.000,2194.000
2217.000,2201.000,2206.000
2229.000,2205.000,2215.000
2247.000,2214.000,2239.000
2246.000,2226.000,2223.000
2207.000,2198.000,2157.000
2230.000,2190.000,2184.000
2209.000,2174.000,2159.000
2222.000,2203.000,2159.000
2200.000,2193.000,2199.000
2197.000,2155.000,2163.000
2205.000,2208.000,2154.000
2182.000,2161.000,2163.000
2178.000,2165.000,2159.000
2164.000,2167.000,2176.000
2183.000,2165.000,2137.000
2150.000,2135.000,2169.000
2165.000,2111.000,2131.000
2136.000,2123.000,2130.000
2115.000,2116.000,2114.000
2097.000,2145.000,2108.000
2092.000,2103.000,2087.000
2087.000,2094.000,2076.000
2104.000,2052.000,2080.000
2116.000,2077.000,2088.000
2085.000,2061.000,2051.000
2070.000,2062.000,2056.000
2019.000,2058.000,2045.000
2039.000,2040.000,2053.000
2029.000,2035.000,2012.000
2058.000,2029.000,2039.000
2007.000,2019.000,2009.000
2040.000,2001.000,1981.000
2020.000,1998.000,2001.000
2008.000,2013.000,2016.000
1996.000,2028.000,1983.000
1990.000,2012.000,1983.000
1990.000,2007.000,1979.000
2014.000,1996.000,2006.000
2003.000,1963.000,1985.000
2005.000,2003.000,1976.000
2012.000,1987.000,2009.000
2014.000,1985.000,1979.000
1979.000,1990.000,1971.000
2014.000,1986.000,1981.000
2000.000,2020.000,1968.000
2021.000,1979.000,1979.000
2021.000,1981.000,1981.000
1989.000,1987.000,1967.000
1944.000,1967.000,1973.000
1978.000,1964.000,1933.000
1971.000,1973.000,1983.000
1977.000,1987.000,1969.000
1928.000,1940.000,1945.000
1949.000,1949.000,1910.000
1920.000,1950.000,1954.000
1956.000,1965.000,1942.000
1922.000,1906.000,1925.000
1925.000,1922.000,1924.000
1907.000,1927.000,1927.000
1930.000,1911.000,1913.000
1921.000,1901.000,1889.000
1906.000,1927.000,1899.000
1882.000,1909.000,1886.000
1906.000,1898.000,1882.000
1882.000,1861.000,1901.000
1864.000,1891.000,1870.000
1874.000,1866.000,1868.000
1879.000,1845.000,1877.000
1849.000,1852.000,1835.000
1863.000,1836.000,1845.000
1850.000,1861.000,1843.000
1844.000,1828.000,1860.000
