Focus Mode,Read Mode,Exposure Time (sec),Number of Frames,Start Y,End Y,Date,Time,Position (microns)
Single Acquisition,Spectrum,20.000000,3,105,125,2/11/2021,5:15:05 PM,-3494.010000,0.000000,221.990000,

1264.000,1265.000,1262.000
1257.000,1265.000,1257.000
1256.000,1253.000,1261.000
1257.000,1256.000,1262.000
1261.000,1265.000,1267.000
1261.000,1270.000,1271.000
1260.000,1260.000,1256.000
1267.000,1260.000,1267.000
1270.000,1273.000,1261.000
1269.000,1262.000,1263.000
1267.000,1266.000,1256.000
1264.000,1260.000,1272.000
1267.000,1266.000,1257.000
1272.000,1260.000,1263.000
1265.000,1269.000,1271.000
1270.000,1265.000,1263.000
1266.000,1266.000,1263.000
1267.000,1271.000,1280.000
1273.000,1268.000,1270.000
1271.000,1265.000,1277.000
1276.000,1273.000,1274.000
1270.000,1279.000,1276.000
1282.000,1282.000,1275.000
1281.000,1284.000,1276.000
1272.000,1282.000,1280.000
1278.000,1281.000,1276.000
1278.000,1285.000,1276.000
1288.000,1290.000,1294.000
1293.000,1285.000,1284.000
1296.000,1293.000,1300.000
1291.000,1298.000,1284.000
1299.000,1298.000,1297.000
1300.000,1303.000,1304.000
1304.000,1303.000,1292.000
1292.000,1303.000,1302.000
1306.000,1301.000,1304.000
1308.000,1314.000,1306.000
1313.000,1317.000,1312.000
1300.000,1318.000,1312.000
1310.000,1304.000,1308.000
1317.000,1319.000,1314.000
1319.000,1315.000,1311.000
1317.000,1322.000,1323.000
1329.000,1340.000,1330.000
1324.000,1334.000,1337.000
1325.000,1354.000,1332.000
1345.000,1348.000,1343.000
1340.000,1345.000,1355.000
1365.000,1356.000,1354.000
1361.000,1366.000,1349.000
1371.000,1362.000,1365.000
1372.000,1371.000,1361.000
1373.000,1382.000,1382.000
1380.000,1397.000,1379.000
1393.000,1405.000,1393.000
1408.000,1393.000,1395.000
1401.000,1399.000,1399.000
1402.000,1400.000,1400.000
1411.000,1405.000,1390.000
1397.000,1427.000,1414.000
1401.000,1410.000,1404.000
1416.000,1402.000,1413.000
1416.000,1419.000,1421.000
1431.000,1423.000,1413.000
1428.000,1414.000,1423.000
1420.000,1427.000,1407.000
1436.000,1425.000,1427.000
1431.000,1447.000,1423.000
1456.000,1460.000,1442.000
1461.000,1460.000,1460.000
1493.000,1475.000,1479.000
1475.000,1485.000,1487.000
1500.000,1492.000,1479.000
1489.000,1508.000,1505.000
1525.000,1516.000,1523.000
1553.000,1542.000,1541.000
1564.000,1548.000,1543.000
1568.000,1573.000,1559.000
1577.000,1553.000,1582.000
1588.000,1579.000,1599.000
1592.000,1588.000,1595.000
1594.000,1617.000,1605.000
1621.000,1603.000,1612.000
1629.000,1669.000,1615.000
1644.000,1645.000,1643.000
1653.000,1639.000,1658.000
1659.000,1685.000,1645.000
1665.000,1683.000,1669.000
1702.000,1694.000,1653.000
1697.000,1695.000,1691.000
1704.000,1715.000,1704.000
1742.000,1736.000,1731.000
1727.000,1735.000,1755.000
1761.000,1780.000,1759.000
1803.000,1827.000,1806.000
1855.000,1829.000,1823.000
1867.000,1899.000,1840.000
1914.000,1894.000,1889.000
1953.000,1960.000,1936.000
2095.000,2045.000,2044.000
2127.000,2116.000,2112.000
2202.000,2187.000,2162.000
2285.000,2266.000,2240.000
2373.000,2341.000,2366.000
2438.000,2423.000,2420.000
2470.000,2488.000,2450.000
2536.000,2533.000,2493.000
2537.000,2531.000,2541.000
2623.000,2557.000,2564.000
2612.000,2613.000,2608.000
2667.000,2641.000,2573.000
2674.000,2622.000,2629.000
2654.000,2659.000,2608.000
2652.000,2673.000,2644.000
2698.000,2722.000,2661.000
2783.000,2756.000,2721.000
2868.000,2857.000,2811.000
2980.000,2954.000,2924.000
3157.000,3110.000,3089.000
3392.000,3354.000,3304.000
3763.000,3784.000,3704.000
4548.000,4403.000,4452.000
5990.000,5827.000,5920.000
9847.000,9710.000,9740.000
21305.000,20936.000,21660.000
61703.000,61773.000,61756.000
62221.000,62223.000,62224.000
62136.000,62139.000,62143.000
62073.000,62073.000,62077.000
62081.000,62083.000,62086.000
62080.000,62080.000,62082.000
62055.000,62061.000,62063.000
62048.000,62055.000,62052.000
62054.000,62055.000,62052.000
62045.000,62055.000,62056.000
62041.000,62049.000,62050.000
62045.000,62046.000,62052.000
62046.000,62050.000,62048.000
62046.000,62044.000,62045.000
62044.000,62048.000,62050.000
62040.000,62049.000,62041.000
62038.000,62045.000,62050.000
62039.000,62047.000,62045.000
62039.000,62042.000,62051.000
62042.000,62043.000,62045.000
62040.000,62043.000,62042.000
62038.000,62042.000,62039.000
62034.000,62047.000,62049.000
62034.000,62043.000,62044.000
62040.000,62038.000,62044.000
62038.000,62047.000,62042.000
62036.000,62038.000,62041.000
62039.000,62042.000,62042.000
62034.000,62040.000,62042.000
62040.000,62039.000,62045.000
62035.000,62041.000,62041.000
62038.000,62040.000,62039.000
62035.000,62044.000,62042.000
62040.000,62048.000,62042.000
62039.000,62042.000,62043.000
62040.000,62048.000,62043.000
62040.000,62043.000,62045.000
62037.000,62049.000,62039.000
62038.000,62040.000,62038.000
62037.000,62042.000,62046.000
62042.000,62042.000,62044.000
62035.000,62041.000,62039.000
62034.000,62038.000,62045.000
62038.000,62040.000,62042.000
62037.000,62042.000,62040.000
62036.000,62039.000,62044.000
62039.000,62038.000,62043.000
62034.000,62043.000,62046.000
62045.000,62045.000,62045.000
62040.000,62045.000,62054.000
62058.000,62067.000,62070.000
62076.000,62082.000,62042.000
40676.000,6866.000,1697.000
1650.000,1600.000,1586.000
1559.000,1556.000,1560.000
1552.000,1534.000,1534.000
1521.000,1538.000,1520.000
1523.000,1499.000,1513.000
1504.000,1495.000,1505.000
1518.000,1503.000,1504.000
1490.000,1493.000,1492.000
1477.000,1463.000,1485.000
1452.000,1483.000,1459.000
1464.000,1445.000,1447.000
1445.000,1437.000,1431.000
1436.000,1446.000,1456.000
1434.000,1421.000,1448.000
1427.000,1435.000,1420.000
1415.000,1431.000,1424.000
1426.000,1419.000,1436.000
1421.000,1398.000,1430.000
1418.000,1421.000,1411.000
1412.000,1408.000,1415.000
1394.000,1401.000,1400.000
1399.000,1415.000,1409.000
1407.000,1403.000,1400.000
1396.000,1399.000,1399.000
1396.000,1406.000,1388.000
1379.000,1385.000,1398.000
1390.000,1395.000,1405.000
1384.000,1400.000,1389.000
1391.000,1387.000,1374.000
1384.000,1376.000,1367.000
1369.000,1376.000,1378.000
1373.000,1383.000,1389.000
1375.000,1387.000,1367.000
1372.000,1368.000,1363.000
1352.000,1361.000,1366.000
1360.000,1371.000,1352.000
1357.000,1359.000,1358.000
1367.000,1368.000,1352.000
1357.000,1352.000,1356.000
1357.000,1346.000,1351.000
1345.000,1363.000,1368.000
1360.000,1343.000,1336.000
1342.000,1348.000,1346.000
1352.000,1347.000,1362.000
1335.000,1329.000,1343.000
1337.000,1347.000,1335.000
1342.000,1346.000,1340.000
1327.000,1350.000,1334.000
1336.000,1327.000,1335.000
1331.000,1317.000,1343.000
1320.000,1326.000,1333.000
1335.000,1324.000,1323.000
1334.000,1329.000,1328.000
1337.000,1325.000,1330.000
1335.000,1336.000,1320.000
1323.000,1330.000,1317.000
1321.000,1322.000,1326.000
1330.000,1308.000,1329.000
1323.000,1318.000,1320.000
1322.000,1318.000,1319.000
1325.000,1318.000,1325.000
1325.000,1322.000,1319.000
1319.000,1311.000,1327.000
1331.000,1319.000,1315.000
1310.000,1315.000,1315.000
1316.000,1303.000,1318.000
1319.000,1313.000,1318.000
1310.000,1313.000,1316.000
1307.000,1310.000,1306.000
1309.000,1313.000,1313.000
1304.000,1316.000,1310.000
1312.000,1307.000,1303.000
1313.000,1307.000,1319.000
1303.000,1305.000,1307.000
1307.000,1301.000,1303.000
1307.000,1290.000,1304.000
1290.000,1306.000,1288.000
1299.000,1295.000,1306.000
1291.000,1293.000,1296.000
1300.000,1292.000,1305.000
1287.000,1308.000,1294.000
1307.000,1294.000,1297.000
1304.000,1303.000,1299.000
1297.000,1293.000,1294.000
1303.000,1297.000,1297.000
1296.000,1296.000,1298.000
1293.000,1300.000,1295.000
1290.000,1291.000,1290.000
1305.000,1296.000,1288.000
1295.000,1296.000,1297.000
1296.000,1297.000,1309.000
1286.000,1300.000,1291.000
1292.000,1299.000,1289.000
1295.000,1300.000,1291.000
1307.000,1298.000,1300.000
1293.000,1294.000,1294.000
1295.000,1285.000,1285.000
1288.000,1292.000,1281.000
1296.000,1289.000,1295.000
1299.000,1297.000,1288.000
1296.000,1291.000,1289.000
1309.000,1293.000,1294.000
1297.000,1298.000,1295.000
1303.000,1291.000,1293.000
1285.000,1295.000,1291.000
1290.000,1292.000,1293.000
1296.000,1303.000,1291.000
1312.000,1292.000,1296.000
1294.000,1306.000,1306.000
1311.000,1304.000,1303.000
1311.000,1309.000,1307.000
1312.000,1311.000,1317.000
1314.000,1311.000,1311.000
1330.000,1329.000,1330.000
1328.000,1316.000,1326.000
1331.000,1328.000,1321.000
1343.000,1342.000,1337.000
1349.000,1351.000,1343.000
1373.000,1368.000,1357.000
1379.000,1367.000,1375.000
1394.000,1394.000,1398.000
1411.000,1404.000,1407.000
1447.000,1423.000,1435.000
1468.000,1452.000,1447.000
1476.000,1485.000,1483.000
1532.000,1520.000,1508.000
1563.000,1571.000,1535.000
1645.000,1612.000,1607.000
1659.000,1676.000,1653.000
1760.000,1747.000,1735.000
1838.000,1831.000,1841.000
1954.000,1961.000,1890.000
2081.000,2041.000,2004.000
2206.000,2176.000,2142.000
2378.000,2299.000,2295.000
2514.000,2531.000,2454.000
2738.000,2679.000,2658.000
2925.000,2950.000,2840.000
3215.000,3141.000,3156.000
3434.000,3362.000,3315.000
3694.000,3622.000,3601.000
3944.000,3904.000,3837.000
4203.000,4169.000,4055.000
4528.000,4456.000,4339.000
4772.000,4645.000,4663.000
5102.000,4914.000,4857.000
5264.000,5199.000,5027.000
5391.000,5259.000,5251.000
5493.000,5471.000,5361.000
5685.000,5519.000,5444.000
5836.000,5615.000,5552.000
5796.000,5656.000,5637.000
5881.000,5731.000,5662.000
5957.000,5795.000,5689.000
5916.000,5784.000,5687.000
5931.000,5815.000,5719.000
5889.000,5779.000,5713.000
5968.000,5808.000,5717.000
5983.000,5832.000,5776.000
5912.000,5752.000,5659.000
5930.000,5827.000,5667.000
5827.000,5751.000,5729.000
5909.000,5750.000,5681.000
5914.000,5776.000,5614.000
5897.000,5765.000,5648.000
5899.000,5727.000,5696.000
5836.000,5725.000,5679.000
5865.000,5750.000,5607.000
5873.000,5790.000,5671.000
5876.000,5748.000,5651.000
5938.000,5777.000,5720.000
5840.000,5794.000,5676.000
5948.000,5754.000,5628.000
5852.000,5754.000,5659.000
5880.000,5795.000,5699.000
5876.000,5782.000,5614.000
5871.000,5693.000,5731.000
5898.000,5778.000,5680.000
5927.000,5748.000,5713.000
5902.000,5788.000,5712.000
5834.000,5768.000,5692.000
5921.000,5746.000,5701.000
5942.000,5736.000,5624.000
5929.000,5833.000,5699.000
5943.000,5717.000,5666.000
5987.000,5731.000,5705.000
5909.000,5766.000,5709.000
5847.000,5768.000,5622.000
5864.000,5731.000,5688.000
5812.000,5837.000,5659.000
5884.000,5694.000,5738.000
5959.000,5715.000,5751.000
6005.000,5746.000,5729.000
5895.000,5857.000,5771.000
5980.000,5866.000,5767.000
5992.000,5850.000,5795.000
6011.000,5865.000,5667.000
6036.000,5845.000,5843.000
5997.000,5898.000,5790.000
6025.000,5860.000,5809.000
6029.000,5913.000,5790.000
6026.000,5913.000,5802.000
6066.000,5896.000,5824.000
6056.000,5978.000,5875.000
6087.000,5941.000,5843.000
6199.000,5911.000,5846.000
6171.000,6010.000,5809.000
6119.000,5963.000,5815.000
6119.000,5936.000,5915.000
6231.000,5950.000,5957.000
6135.000,5987.000,5928.000
6060.000,6080.000,5877.000
6220.000,6007.000,5830.000
6089.000,6047.000,5951.000
6176.000,6032.000,5971.000
6206.000,5987.000,5998.000
6208.000,6125.000,5975.000
6219.000,6098.000,5956.000
6256.000,6026.000,6015.000
6223.000,6090.000,6058.000
6274.000,6151.000,6035.000
6270.000,6182.000,6021.000
6214.000,6122.000,5982.000
6296.000,6062.000,6033.000
6198.000,6063.000,5954.000
6252.000,6076.000,6084.000
6283.000,6124.000,6041.000
6295.000,6068.000,5971.000
6272.000,6203.000,5999.000
6392.000,6105.000,6028.000
6355.000,6156.000,6079.000
6377.000,6208.000,6114.000
6387.000,6208.000,6124.000
6416.000,6183.000,6141.000
6392.000,6318.000,6152.000
6575.000,6307.000,6134.000
6451.000,6256.000,6255.000
6427.000,6359.000,6200.000
6504.000,6350.000,6177.000
6487.000,6319.000,6227.000
6437.000,6384.000,6237.000
6377.000,6276.000,6228.000
6472.000,6365.000,6187.000
6469.000,6333.000,6188.000
6504.000,6313.000,6212.000
6537.000,6224.000,6222.000
6515.000,6293.000,6242.000
6544.000,6335.000,6249.000
6574.000,6316.000,6254.000
6608.000,6391.000,6242.000
6594.000,6378.000,6304.000
6465.000,6388.000,6231.000
6513.000,6475.000,6305.000
6540.000,6438.000,6241.000
6544.000,6458.000,6340.000
6480.000,6397.000,6422.000
6589.000,6489.000,6391.000
6622.000,6519.000,6431.000
6661.000,6493.000,6366.000
6711.000,6530.000,6425.000
6743.000,6499.000,6406.000
6689.000,6527.000,6440.000
6701.000,6544.000,6513.000
6793.000,6633.000,6519.000
6777.000,6601.000,6583.000
6781.000,6693.000,6594.000
6898.000,6715.000,6701.000
6937.000,6793.000,6560.000
7030.000,6767.000,6784.000
7018.000,6918.000,6783.000
7067.000,6971.000,6821.000
7164.000,7009.000,6909.000
7230.000,7050.000,7025.000
7312.000,7166.000,7057.000
7344.000,7317.000,7179.000
7390.000,7278.000,7151.000
7528.000,7434.000,7162.000
7586.000,7391.000,7272.000
7617.000,7549.000,7347.000
7594.000,7497.000,7388.000
7594.000,7512.000,7422.000
7696.000,7580.000,7353.000
7639.000,7529.000,7425.000
7557.000,7412.000,7393.000
7669.000,7451.000,7339.000
7544.000,7342.000,7262.000
7470.000,7247.000,7237.000
7441.000,7229.000,7113.000
7348.000,7138.000,7070.000
7291.000,7076.000,7090.000
7210.000,7062.000,6973.000
7120.000,7025.000,6851.000
7083.000,6992.000,6895.000
7120.000,6951.000,6845.000
6973.000,6802.000,6737.000
7053.000,6865.000,6760.000
7008.000,6800.000,6673.000
6890.000,6797.000,6725.000
6891.000,6774.000,6709.000
6888.000,6636.000,6585.000
6779.000,6719.000,6648.000
6876.000,6776.000,6582.000
6763.000,6673.000,6575.000
6671.000,6690.000,6483.000
6792.000,6664.000,6503.000
6736.000,6687.000,6511.000
6723.000,6553.000,6481.000
6772.000,6643.000,6426.000
6696.000,6566.000,6444.000
6688.000,6488.000,6412.000
6670.000,6535.000,6386.000
6690.000,6578.000,6398.000
6755.000,6543.000,6415.000
6693.000,6549.000,6413.000
6678.000,6485.000,6463.000
6699.000,6527.000,6512.000
6707.000,6548.000,6427.000
6729.000,6559.000,6483.000
6661.000,6597.000,6438.000
6761.000,6618.000,6510.000
6728.000,6619.000,6361.000
6744.000,6625.000,6433.000
6750.000,6541.000,6506.000
6737.000,6494.000,6387.000
6767.000,6639.000,6485.000
6778.000,6554.000,6424.000
6783.000,6515.000,6388.000
6711.000,6613.000,6406.000
6659.000,6536.000,6504.000
6748.000,6584.000,6378.000
6682.000,6512.000,6459.000
6699.000,6505.000,6351.000
6599.000,6393.000,6376.000
6607.000,6450.000,6327.000
6539.000,6414.000,6332.000
6549.000,6372.000,6315.000
6572.000,6439.000,6298.000
6526.000,6371.000,6277.000
6411.000,6385.000,6156.000
6497.000,6355.000,6123.000
6502.000,6325.000,6170.000
6405.000,6286.000,6146.000
6400.000,6179.000,6131.000
6441.000,6253.000,6131.000
6352.000,6177.000,6097.000
6430.000,6266.000,6069.000
6352.000,6207.000,6112.000
6339.000,6209.000,6115.000
6301.000,6162.000,6066.000
6360.000,6189.000,6022.000
6338.000,6109.000,6042.000
6424.000,6222.000,6075.000
6249.000,6184.000,6124.000
6340.000,6130.000,6061.000
6297.000,6173.000,5989.000
6339.000,6031.000,5928.000
6296.000,6133.000,6089.000
6307.000,6181.000,6028.000
6245.000,6131.000,6002.000
6222.000,6105.000,6015.000
6252.000,6088.000,5991.000
6245.000,6078.000,6008.000
6205.000,6019.000,5941.000
6215.000,6031.000,5962.000
6129.000,6098.000,6000.000
6220.000,6112.000,5964.000
6178.000,6075.000,5949.000
6214.000,6055.000,5983.000
6230.000,6032.000,5931.000
6259.000,6048.000,5913.000
6254.000,5992.000,5920.000
6140.000,6007.000,5960.000
6243.000,6079.000,5976.000
6284.000,6060.000,5979.000
6300.000,6054.000,5956.000
6219.000,6087.000,5965.000
6255.000,6076.000,5964.000
6215.000,6112.000,5983.000
6207.000,6172.000,6051.000
6258.000,6155.000,5983.000
6297.000,6112.000,6083.000
6256.000,6140.000,6017.000
6277.000,6126.000,6007.000
6265.000,6133.000,6034.000
6267.000,6080.000,6043.000
6207.000,6183.000,6072.000
6352.000,6109.000,5986.000
6348.000,6176.000,6035.000
6385.000,6114.000,6048.000
6288.000,6085.000,6024.000
6284.000,6157.000,6044.000
6376.000,6137.000,6027.000
6348.000,6107.000,6032.000
6301.000,6156.000,6007.000
6304.000,6170.000,6108.000
6289.000,6187.000,6093.000
6318.000,6232.000,6085.000
6259.000,6112.000,5971.000
6208.000,6168.000,6033.000
6308.000,6222.000,6037.000
6217.000,6106.000,6023.000
6269.000,6094.000,6010.000
6237.000,6099.000,5962.000
6269.000,6120.000,5982.000
6323.000,6068.000,5987.000
6323.000,6221.000,6028.000
6301.000,6156.000,6058.000
6326.000,6239.000,6012.000
6375.000,6099.000,6063.000
6340.000,6183.000,6075.000
6375.000,6236.000,6012.000
6256.000,6210.000,6085.000
6368.000,6191.000,6108.000
6306.000,6154.000,6131.000
6369.000,6134.000,6103.000
6326.000,6175.000,6048.000
6299.000,6135.000,6057.000
6320.000,6169.000,6083.000
6265.000,6090.000,5970.000
6320.000,6153.000,6026.000
6318.000,6165.000,6020.000
6228.000,5987.000,5895.000
6243.000,6080.000,6001.000
6240.000,6137.000,5946.000
6295.000,6074.000,6035.000
6209.000,6077.000,5998.000
6274.000,6147.000,5911.000
6291.000,6061.000,5945.000
6205.000,6080.000,6003.000
6290.000,6055.000,5931.000
6190.000,6097.000,5964.000
6241.000,6138.000,5870.000
6198.000,6057.000,5954.000
6235.000,6013.000,5890.000
6269.000,6038.000,5929.000
6204.000,5968.000,5979.000
6297.000,5991.000,5879.000
6103.000,5958.000,5878.000
6225.000,5989.000,5921.000
6142.000,6047.000,5930.000
6194.000,5936.000,5944.000
6149.000,5991.000,5984.000
6205.000,6028.000,5928.000
6164.000,6114.000,5914.000
6242.000,5975.000,5883.000
6182.000,6023.000,5947.000
6215.000,6062.000,5965.000
6138.000,6030.000,5956.000
6228.000,6011.000,5936.000
6242.000,6037.000,5931.000
6137.000,6071.000,5886.000
6218.000,5979.000,5867.000
6127.000,5996.000,5896.000
6146.000,6001.000,5838.000
6104.000,5959.000,5924.000
6173.000,5967.000,5854.000
6156.000,6026.000,5868.000
6174.000,5977.000,5904.000
6173.000,6000.000,5916.000
6179.000,5984.000,5903.000
6142.000,5930.000,5853.000
6207.000,6005.000,5942.000
6211.000,5979.000,5895.000
6195.000,6020.000,5886.000
6245.000,6090.000,5978.000
6325.000,6050.000,5897.000
6116.000,6010.000,5933.000
6241.000,6045.000,5845.000
6181.000,6037.000,5951.000
6190.000,6077.000,5849.000
6214.000,6006.000,5987.000
6151.000,6051.000,5854.000
6193.000,6039.000,5920.000
6230.000,6037.000,5900.000
6190.000,6033.000,5952.000
6196.000,6010.000,6000.000
6242.000,6047.000,5938.000
6148.000,5994.000,5934.000
6174.000,6005.000,5968.000
6174.000,6066.000,5942.000
6224.000,6009.000,5923.000
6205.000,6078.000,5926.000
6158.000,5962.000,5942.000
6226.000,6054.000,5947.000
6154.000,6105.000,5939.000
6204.000,6048.000,5948.000
6166.000,6042.000,5980.000
6233.000,6041.000,5894.000
6234.000,6026.000,5865.000
6167.000,6051.000,5880.000
6212.000,6043.000,5931.000
6160.000,6005.000,5862.000
6141.000,6011.000,5888.000
6129.000,6047.000,5911.000
6123.000,5973.000,5844.000
6168.000,5967.000,5968.000
6132.000,5982.000,5842.000
6180.000,6006.000,5865.000
6146.000,5980.000,5929.000
6258.000,6011.000,5922.000
6209.000,5954.000,5899.000
6220.000,6007.000,5900.000
6213.000,6063.000,5975.000
6178.000,6069.000,5952.000
6212.000,6070.000,5909.000
6163.000,5994.000,5921.000
6208.000,6053.000,5897.000
6155.000,6009.000,5940.000
6243.000,6039.000,5895.000
6270.000,6145.000,5924.000
6138.000,5988.000,5940.000
6177.000,6090.000,5968.000
6213.000,6017.000,5988.000
6194.000,6063.000,6023.000
6124.000,6023.000,5922.000
6215.000,6027.000,5908.000
6153.000,6013.000,5842.000
6243.000,5969.000,5861.000
6174.000,6032.000,5911.000
6149.000,6070.000,5852.000
6158.000,6013.000,5924.000
6215.000,6006.000,5918.000
6173.000,6013.000,5913.000
6214.000,6047.000,5873.000
6188.000,6094.000,6013.000
6179.000,6014.000,5935.000
6199.000,6115.000,5930.000
6153.000,6024.000,5977.000
6201.000,6002.000,5819.000
6188.000,5991.000,5874.000
6201.000,6046.000,5899.000
6166.000,6028.000,5964.000
6189.000,6023.000,5977.000
6180.000,6052.000,5902.000
6232.000,6050.000,5933.000
6174.000,5967.000,5931.000
6203.000,6094.000,5873.000
6209.000,6067.000,5916.000
6206.000,6082.000,5900.000
6260.000,6056.000,5885.000
6243.000,6128.000,6008.000
6208.000,6081.000,5926.000
6221.000,5998.000,5949.000
6158.000,5953.000,5931.000
6174.000,6026.000,5921.000
6119.000,5980.000,5876.000
6152.000,6018.000,5922.000
6192.000,6041.000,5891.000
6212.000,6034.000,5916.000
6242.000,6038.000,6007.000
6140.000,6095.000,5930.000
6193.000,6115.000,5967.000
6170.000,6036.000,5951.000
6261.000,5962.000,5937.000
6272.000,6053.000,5931.000
6179.000,6042.000,5911.000
6204.000,5984.000,5820.000
6223.000,5967.000,5909.000
6170.000,6003.000,5935.000
6182.000,6085.000,5844.000
6178.000,6054.000,5930.000
6185.000,6061.000,5946.000
6198.000,6020.000,5865.000
6168.000,6020.000,5909.000
6165.000,6035.000,5959.000
6206.000,5985.000,5885.000
6116.000,6009.000,5977.000
6207.000,6084.000,5956.000
6235.000,6092.000,5930.000
6292.000,6084.000,5897.000
6145.000,6035.000,5991.000
6181.000,6090.000,5941.000
6224.000,6028.000,5962.000
6196.000,6163.000,5959.000
6283.000,6072.000,6009.000
6250.000,6166.000,5968.000
6304.000,6067.000,5931.000
6267.000,6034.000,5934.000
6303.000,6105.000,5993.000
6179.000,6088.000,6006.000
6235.000,6164.000,6024.000
6269.000,6070.000,5978.000
6249.000,6105.000,5953.000
6355.000,6081.000,6043.000
6271.000,6102.000,6055.000
6290.000,6140.000,6050.000
6262.000,6114.000,6072.000
6296.000,6150.000,6017.000
6284.000,6153.000,6019.000
6237.000,6089.000,5962.000
6316.000,6166.000,5942.000
6255.000,6123.000,6011.000
6303.000,6142.000,6002.000
6326.000,6137.000,6032.000
6288.000,6118.000,6056.000
6263.000,6087.000,6047.000
6344.000,6152.000,6158.000
6271.000,6157.000,6107.000
6311.000,6124.000,6059.000
6318.000,6161.000,6015.000
6302.000,6205.000,6087.000
6319.000,6125.000,5986.000
6360.000,6136.000,6098.000
6325.000,6158.000,6079.000
6385.000,6130.000,6156.000
6361.000,6289.000,6085.000
6295.000,6231.000,6078.000
6379.000,6190.000,6154.000
6368.000,6187.000,6161.000
6419.000,6270.000,6121.000
6463.000,6185.000,6089.000
6475.000,6284.000,6148.000
6455.000,6251.000,6190.000
6355.000,6313.000,6145.000
6476.000,6173.000,6185.000
6388.000,6307.000,6181.000
6504.000,6271.000,6191.000
6504.000,6299.000,6152.000
6420.000,6274.000,6246.000
6488.000,6344.000,6240.000
6468.000,6369.000,6215.000
6502.000,6362.000,6274.000
6558.000,6407.000,6317.000
6528.000,6395.000,6263.000
6547.000,6423.000,6303.000
6594.000,6424.000,6370.000
6714.000,6454.000,6396.000
6670.000,6584.000,6496.000
6782.000,6674.000,6558.000
6759.000,6714.000,6559.000
6953.000,6733.000,6600.000
7001.000,6876.000,6777.000
7110.000,7014.000,6844.000
7202.000,7107.000,6978.000
7439.000,7267.000,7140.000
7655.000,7450.000,7314.000
7790.000,7733.000,7642.000
8203.000,8049.000,7944.000
8557.000,8447.000,8370.000
9212.000,8964.000,8914.000
9712.000,9601.000,9448.000
10427.000,10237.000,10216.000
11198.000,11211.000,10909.000
12103.000,12066.000,11963.000
13042.000,12926.000,12831.000
13914.000,13767.000,13608.000
14604.000,14472.000,14326.000
15155.000,14990.000,14861.000
15545.000,15233.000,15164.000
15614.000,15309.000,15143.000
15242.000,15061.000,14768.000
14845.000,14605.000,14480.000
13984.000,13794.000,13516.000
13212.000,12880.000,12795.000
12263.000,11895.000,11783.000
11334.000,11281.000,11014.000
10561.000,10398.000,10137.000
9860.000,9626.000,9479.000
9143.000,8960.000,8845.000
8738.000,8379.000,8229.000
8250.000,7970.000,7876.000
7772.000,7621.000,7476.000
7530.000,7230.000,7254.000
7277.000,7163.000,7017.000
7151.000,7015.000,6782.000
6925.000,6915.000,6732.000
6923.000,6751.000,6613.000
6712.000,6664.000,6494.000
6675.000,6498.000,6398.000
6589.000,6481.000,6340.000
6602.000,6375.000,6281.000
6594.000,6431.000,6246.000
6476.000,6394.000,6255.000
6455.000,6295.000,6232.000
6449.000,6183.000,6119.000
6396.000,6253.000,6046.000
6344.000,6201.000,6127.000
6328.000,6211.000,6121.000
6289.000,6208.000,6078.000
6218.000,6179.000,5946.000
6250.000,6155.000,6025.000
6226.000,6062.000,6004.000
6212.000,6051.000,5887.000
6265.000,6119.000,5931.000
6215.000,6067.000,5963.000
6171.000,6016.000,5921.000
6152.000,6050.000,5972.000
6217.000,6041.000,5936.000
6187.000,6050.000,5976.000
6136.000,5971.000,5873.000
6132.000,6148.000,5873.000
6174.000,5995.000,5967.000
6081.000,6032.000,5927.000
6121.000,5950.000,5849.000
6144.000,5958.000,5946.000
6076.000,5989.000,5915.000
6158.000,5975.000,5878.000
6062.000,6039.000,5862.000
6096.000,6030.000,5858.000
6094.000,6006.000,5890.000
6093.000,6028.000,5886.000
6044.000,5961.000,5858.000
6106.000,5895.000,5839.000
6076.000,5915.000,5798.000
6081.000,5971.000,5772.000
6046.000,5939.000,5816.000
6003.000,5931.000,5791.000
6054.000,5869.000,5847.000
6123.000,5956.000,5797.000
6014.000,5888.000,5757.000
6014.000,5885.000,5797.000
5989.000,5851.000,5744.000
6067.000,5859.000,5813.000
6027.000,5836.000,5792.000
6057.000,5839.000,5743.000
6018.000,5887.000,5784.000
6031.000,5878.000,5755.000
5964.000,5852.000,5765.000
5980.000,5866.000,5748.000
5994.000,5820.000,5697.000
6004.000,5826.000,5746.000
5887.000,5866.000,5761.000
5981.000,5833.000,5668.000
5928.000,5847.000,5704.000
5936.000,5861.000,5726.000
5925.000,5877.000,5671.000
5936.000,5787.000,5674.000
5990.000,5797.000,5648.000
5942.000,5838.000,5677.000
5974.000,5778.000,5724.000
5927.000,5863.000,5736.000
5997.000,5771.000,5718.000
5977.000,5827.000,5630.000
5896.000,5814.000,5705.000
5990.000,5814.000,5722.000
5903.000,5787.000,5736.000
5889.000,5792.000,5713.000
5942.000,5828.000,5752.000
5890.000,5698.000,5687.000
5867.000,5827.000,5677.000
5924.000,5774.000,5713.000
5851.000,5761.000,5572.000
5958.000,5675.000,5645.000
5956.000,5804.000,5695.000
5950.000,5773.000,5643.000
5982.000,5845.000,5696.000
5937.000,5807.000,5694.000
5966.000,5823.000,5706.000
5984.000,5838.000,5720.000
5962.000,5750.000,5771.000
5919.000,5792.000,5686.000
6001.000,5759.000,5660.000
6001.000,5776.000,5648.000
5993.000,5849.000,5716.000
6033.000,5885.000,5730.000
6062.000,5775.000,5839.000
5968.000,5875.000,5729.000
6001.000,5911.000,5728.000
6013.000,5831.000,5774.000
5982.000,5847.000,5770.000
6000.000,5899.000,5797.000
6024.000,5853.000,5797.000
6003.000,5859.000,5784.000
6004.000,5898.000,5817.000
6008.000,5855.000,5701.000
5980.000,5930.000,5728.000
6039.000,5836.000,5824.000
6033.000,5891.000,5793.000
5969.000,5917.000,5773.000
6012.000,5907.000,5756.000
6011.000,5893.000,5791.000
6119.000,6015.000,5908.000
6047.000,5984.000,5860.000
6067.000,5999.000,5872.000
6184.000,5943.000,5953.000
6171.000,6028.000,5935.000
6214.000,6066.000,5922.000
6283.000,6115.000,6063.000
6287.000,6095.000,6038.000
6358.000,6214.000,6127.000
6330.000,6253.000,6091.000
6400.000,6419.000,6187.000
6518.000,6355.000,6255.000
6529.000,6530.000,6352.000
6704.000,6512.000,6421.000
6719.000,6585.000,6513.000
6747.000,6630.000,6569.000
6919.000,6800.000,6748.000
7017.000,6854.000,6797.000
7153.000,7047.000,7019.000
7414.000,7180.000,7128.000
7582.000,7456.000,7305.000
7761.000,7581.000,7592.000
7923.000,7725.000,7668.000
8087.000,7941.000,7777.000
8308.000,8068.000,8043.000
8275.000,8152.000,8082.000
8447.000,8294.000,8088.000
8425.000,8416.000,8164.000
8468.000,8324.000,8156.000
8496.000,8223.000,8124.000
8392.000,8121.000,8115.000
8331.000,8149.000,8051.000
8086.000,7908.000,7901.000
7963.000,7816.000,7732.000
7753.000,7653.000,7562.000
7627.000,7510.000,7432.000
7449.000,7337.000,7277.000
7370.000,7208.000,7148.000
7168.000,7143.000,7036.000
7148.000,6977.000,6938.000
6946.000,6901.000,6761.000
6967.000,6881.000,6681.000
6895.000,6757.000,6662.000
6847.000,6689.000,6573.000
6849.000,6602.000,6530.000
6830.000,6689.000,6645.000
6775.000,6729.000,6651.000
6855.000,6772.000,6619.000
6846.000,6667.000,6643.000
6984.000,6777.000,6667.000
6958.000,6757.000,6671.000
7035.000,6760.000,6808.000
7029.000,6920.000,6805.000
7111.000,6992.000,6913.000
7167.000,7035.000,6984.000
7194.000,7037.000,7008.000
7152.000,7090.000,7059.000
7226.000,7286.000,7151.000
7462.000,7327.000,7182.000
7504.000,7458.000,7263.000
7545.000,7385.000,7286.000
7679.000,7475.000,7455.000
7718.000,7595.000,7454.000
7839.000,7639.000,7580.000
7838.000,7593.000,7591.000
7808.000,7688.000,7687.000
7932.000,7790.000,7735.000
7865.000,7724.000,7610.000
7793.000,7621.000,7505.000
7739.000,7542.000,7440.000
7559.000,7459.000,7345.000
7403.000,7348.000,7250.000
7277.000,7221.000,7054.000
7170.000,7005.000,6939.000
7026.000,6848.000,6761.000
6934.000,6747.000,6642.000
6744.000,6643.000,6566.000
6606.000,6488.000,6441.000
6493.000,6372.000,6280.000
6434.000,6304.000,6230.000
6344.000,6225.000,6112.000
6243.000,6135.000,6083.000
6228.000,6059.000,5933.000
6149.000,6042.000,5909.000
6062.000,5977.000,5881.000
6004.000,6008.000,5805.000
5981.000,5946.000,5812.000
5966.000,5896.000,5753.000
5968.000,5889.000,5772.000
5955.000,5813.000,5701.000
5932.000,5799.000,5685.000
5918.000,5810.000,5671.000
5956.000,5723.000,5670.000
5883.000,5778.000,5639.000
5899.000,5711.000,5606.000
5921.000,5728.000,5746.000
5917.000,5844.000,5653.000
5917.000,5757.000,5639.000
5912.000,5748.000,5630.000
5865.000,5641.000,5634.000
5849.000,5639.000,5621.000
5797.000,5655.000,5534.000
5684.000,5654.000,5598.000
5660.000,5525.000,5476.000
5702.000,5590.000,5479.000
5674.000,5451.000,5473.000
5683.000,5521.000,5388.000
5621.000,5519.000,5393.000
5611.000,5429.000,5393.000
5542.000,5422.000,5355.000
5452.000,5387.000,5224.000
5485.000,5335.000,5288.000
5441.000,5270.000,5272.000
5479.000,5247.000,5163.000
5404.000,5326.000,5215.000
5260.000,5222.000,5147.000
5399.000,5160.000,5151.000
5265.000,5233.000,5111.000
5222.000,5146.000,5059.000
5211.000,5158.000,5051.000
5160.000,5148.000,5047.000
5148.000,5064.000,4968.000
5128.000,5102.000,5020.000
5224.000,5039.000,4969.000
5201.000,5081.000,4994.000
5174.000,5059.000,4980.000
5176.000,5046.000,4980.000
5178.000,5076.000,4966.000
5185.000,5067.000,4983.000
5248.000,4951.000,4987.000
5137.000,5044.000,4972.000
5195.000,4993.000,4919.000
5167.000,5059.000,4958.000
5135.000,5018.000,4925.000
5159.000,4995.000,4855.000
5112.000,4968.000,4858.000
5072.000,4928.000,4831.000
5113.000,4943.000,4879.000
5018.000,4955.000,4890.000
4980.000,4931.000,4862.000
4987.000,4896.000,4829.000
5006.000,4840.000,4873.000
4975.000,4843.000,4733.000
4896.000,4802.000,4768.000
4944.000,4817.000,4772.000
4945.000,4876.000,4793.000
4877.000,4799.000,4737.000
4936.000,4802.000,4718.000
4830.000,4793.000,4716.000
4849.000,4800.000,4751.000
4921.000,4861.000,4762.000
4956.000,4727.000,4770.000
4967.000,4810.000,4735.000
4914.000,4850.000,4776.000
4931.000,4822.000,4772.000
4985.000,4817.000,4793.000
4938.000,4787.000,4849.000
4942.000,4786.000,4719.000
4924.000,4815.000,4712.000
4889.000,4843.000,4710.000
4920.000,4761.000,4751.000
4891.000,4815.000,4677.000
4837.000,4729.000,4687.000
4816.000,4768.000,4624.000
4868.000,4778.000,4630.000
4836.000,4717.000,4631.000
4731.000,4726.000,4639.000
4881.000,4703.000,4698.000
4843.000,4774.000,4683.000
4884.000,4824.000,4683.000
4870.000,4805.000,4675.000
4806.000,4814.000,4734.000
4902.000,4783.000,4720.000
4923.000,4809.000,4742.000
4914.000,4751.000,4685.000
4837.000,4768.000,4686.000
4884.000,4789.000,4717.000
4839.000,4768.000,4674.000
4906.000,4792.000,4682.000
4852.000,4837.000,4723.000
4871.000,4768.000,4698.000
4877.000,4731.000,4651.000
4877.000,4736.000,4690.000
4927.000,4750.000,4674.000
4781.000,4783.000,4674.000
4765.000,4697.000,4611.000
4827.000,4778.000,4683.000
4886.000,4810.000,4717.000
4869.000,4740.000,4722.000
4853.000,4808.000,4667.000
4953.000,4829.000,4721.000
4933.000,4815.000,4710.000
4898.000,4797.000,4705.000
4938.000,4811.000,4700.000
4892.000,4815.000,4735.000
4900.000,4762.000,4730.000
4883.000,4847.000,4683.000
4870.000,4812.000,4770.000
4858.000,4814.000,4719.000
4931.000,4745.000,4788.000
4945.000,4833.000,4764.000
4928.000,4777.000,4733.000
4936.000,4779.000,4700.000
4975.000,4838.000,4740.000
4977.000,4873.000,4751.000
4945.000,4885.000,4781.000
4936.000,4905.000,4779.000
4922.000,4778.000,4745.000
4948.000,4865.000,4792.000
4979.000,4949.000,4726.000
4946.000,4885.000,4784.000
4904.000,4870.000,4823.000
4954.000,4898.000,4756.000
4930.000,4864.000,4745.000
4880.000,4790.000,4787.000
4992.000,4858.000,4819.000
4932.000,4892.000,4852.000
4968.000,4890.000,4738.000
4998.000,4841.000,4829.000
5022.000,4886.000,4838.000
5088.000,4954.000,4875.000
5059.000,5005.000,4955.000
5012.000,4917.000,4937.000
5044.000,4917.000,4911.000
5087.000,4968.000,4955.000
5099.000,5005.000,4929.000
5118.000,5063.000,4996.000
5062.000,5006.000,4918.000
5098.000,4991.000,4950.000
5127.000,5047.000,4976.000
5153.000,5018.000,4933.000
5120.000,5047.000,5002.000
5073.000,5133.000,4972.000
5255.000,5113.000,5022.000
5292.000,5179.000,5118.000
5359.000,5255.000,5113.000
5335.000,5287.000,5244.000
5457.000,5386.000,5227.000
5560.000,5476.000,5305.000
5630.000,5466.000,5416.000
5743.000,5576.000,5517.000
5703.000,5555.000,5576.000
5688.000,5610.000,5611.000
5817.000,5703.000,5596.000
5802.000,5691.000,5620.000
5768.000,5716.000,5601.000
5788.000,5601.000,5646.000
5788.000,5711.000,5607.000
5795.000,5713.000,5629.000
5708.000,5623.000,5563.000
5683.000,5586.000,5516.000
5696.000,5562.000,5469.000
5654.000,5497.000,5463.000
5649.000,5503.000,5417.000
5513.000,5473.000,5280.000
5517.000,5412.000,5363.000
5484.000,5366.000,5281.000
5401.000,5335.000,5309.000
5406.000,5352.000,5205.000
5207.000,5232.000,5120.000
5347.000,5214.000,5167.000
5219.000,5183.000,5075.000
5252.000,5129.000,5050.000
5172.000,5107.000,5027.000
5100.000,5002.000,4994.000
5090.000,5069.000,4981.000
5069.000,5074.000,4954.000
5140.000,4991.000,4952.000
5029.000,4992.000,4869.000
4947.000,4929.000,4871.000
5047.000,4918.000,4869.000
5027.000,4941.000,4837.000
5011.000,4943.000,4952.000
5129.000,4932.000,4861.000
5077.000,4946.000,4857.000
5054.000,4948.000,4911.000
5093.000,4935.000,4863.000
5037.000,4971.000,4882.000
5119.000,5020.000,4907.000
5127.000,4926.000,4922.000
5026.000,4900.000,4898.000
5031.000,4925.000,4904.000
5071.000,4969.000,4866.000
5020.000,4856.000,4895.000
5013.000,4906.000,4873.000
5031.000,4935.000,4821.000
5030.000,4966.000,4838.000
5060.000,4819.000,4835.000
4959.000,4858.000,4838.000
4889.000,4918.000,4835.000
4950.000,4832.000,4796.000
4895.000,4782.000,4801.000
4911.000,4868.000,4802.000
4883.000,4827.000,4755.000
4925.000,4878.000,4752.000
4915.000,4852.000,4737.000
4864.000,4785.000,4753.000
4880.000,4737.000,4699.000
4837.000,4792.000,4703.000
4911.000,4771.000,4783.000
4847.000,4813.000,4721.000
5003.000,4816.000,4797.000
4929.000,4912.000,4760.000
4950.000,4849.000,4750.000
5007.000,4799.000,4755.000
4917.000,4846.000,4818.000
4919.000,4868.000,4677.000
4909.000,4816.000,4763.000
4889.000,4801.000,4774.000
4945.000,4814.000,4750.000
4837.000,4810.000,4678.000
4933.000,4845.000,4705.000
4911.000,4764.000,4675.000
4936.000,4782.000,4661.000
4910.000,4754.000,4745.000
4759.000,4716.000,4689.000
4753.000,4781.000,4691.000
4815.000,4747.000,4651.000
4804.000,4683.000,4655.000
4794.000,4713.000,4619.000
4836.000,4722.000,4597.000
4769.000,4705.000,4628.000
4777.000,4668.000,4628.000
4789.000,4736.000,4619.000
4785.000,4722.000,4664.000
4794.000,4726.000,4655.000
4763.000,4732.000,4675.000
4805.000,4762.000,4619.000
4806.000,4745.000,4661.000
4842.000,4773.000,4642.000
4857.000,4660.000,4691.000
4893.000,4759.000,4672.000
4802.000,4747.000,4710.000
4833.000,4778.000,4654.000
4813.000,4779.000,4678.000
4800.000,4723.000,4691.000
4800.000,4767.000,4710.000
4879.000,4742.000,4673.000
4838.000,4728.000,4701.000
4807.000,4762.000,4724.000
4816.000,4748.000,4752.000
4917.000,4787.000,4722.000
4848.000,4776.000,4648.000
4865.000,4759.000,4699.000
4862.000,4762.000,4771.000
4830.000,4792.000,4763.000
4849.000,4773.000,4779.000
4837.000,4792.000,4674.000
4854.000,4797.000,4755.000
4890.000,4759.000,4763.000
4848.000,4856.000,4742.000
4860.000,4795.000,4719.000
4862.000,4838.000,4739.000
4851.000,4804.000,4656.000
4922.000,4780.000,4736.000
4874.000,4900.000,4744.000
4921.000,4784.000,4709.000
4828.000,4800.000,4736.000
4887.000,4712.000,4713.000
4777.000,4745.000,4675.000
4869.000,4686.000,4680.000
4941.000,4772.000,4660.000
4820.000,4815.000,4667.000
4949.000,4769.000,4729.000
4898.000,4822.000,4717.000
4905.000,4781.000,4716.000
4883.000,4819.000,4734.000
4878.000,4824.000,4738.000
4901.000,4814.000,4751.000
4917.000,4804.000,4708.000
4929.000,4850.000,4754.000
4926.000,4819.000,4786.000
4937.000,4811.000,4740.000
4993.000,4820.000,4821.000
4969.000,4843.000,4800.000
4935.000,4873.000,4864.000
4960.000,4939.000,4802.000
4952.000,4846.000,4804.000
4988.000,4871.000,4818.000
4994.000,4850.000,4774.000
4920.000,4870.000,4805.000
4933.000,4930.000,4848.000
4917.000,4903.000,4749.000
4956.000,4888.000,4785.000
4904.000,4858.000,4873.000
4968.000,4843.000,4803.000
4868.000,4853.000,4794.000
4896.000,4877.000,4810.000
4973.000,4850.000,4829.000
4982.000,4856.000,4782.000
4940.000,4806.000,4815.000
4915.000,4837.000,4798.000
4987.000,4840.000,4806.000
4953.000,4887.000,4808.000
4935.000,4865.000,4894.000
5022.000,4899.000,4774.000
5046.000,4915.000,4839.000
5001.000,4966.000,4817.000
5045.000,4948.000,4802.000
5067.000,4932.000,4829.000
5039.000,4939.000,4907.000
5082.000,5020.000,4953.000
5124.000,5040.000,5002.000
5094.000,5056.000,4931.000
5200.000,5080.000,5054.000
5174.000,5073.000,5096.000
5218.000,5164.000,5138.000
5269.000,5102.000,5108.000
5268.000,5247.000,5154.000
5347.000,5231.000,5190.000
5350.000,5254.000,5196.000
5347.000,5310.000,5255.000
5419.000,5346.000,5364.000
5514.000,5480.000,5381.000
5559.000,5543.000,5490.000
5621.000,5547.000,5514.000
5664.000,5738.000,5637.000
5853.000,5784.000,5662.000
5964.000,5916.000,5816.000
6034.000,5876.000,5870.000
6232.000,6085.000,6025.000
6265.000,6254.000,6224.000
6494.000,6317.000,6328.000
6600.000,6488.000,6434.000
6700.000,6600.000,6528.000
6754.000,6720.000,6510.000
6765.000,6734.000,6637.000
6875.000,6767.000,6694.000
6864.000,6770.000,6654.000
6733.000,6746.000,6588.000
6678.000,6672.000,6532.000
6575.000,6468.000,6439.000
6464.000,6383.000,6242.000
6176.000,6154.000,6081.000
6087.000,5960.000,5879.000
5853.000,5837.000,5749.000
5711.000,5624.000,5560.000
5635.000,5543.000,5433.000
5551.000,5399.000,5320.000
5339.000,5272.000,5226.000
5307.000,5204.000,5138.000
5195.000,5150.000,5101.000
5118.000,5063.000,4985.000
5111.000,4973.000,4931.000
5027.000,4999.000,4899.000
5064.000,4948.000,4843.000
5023.000,4911.000,4864.000
4966.000,4958.000,4802.000
4951.000,4865.000,4800.000
4939.000,4917.000,4800.000
4968.000,4862.000,4791.000
4978.000,4808.000,4803.000
4917.000,4898.000,4833.000
4936.000,4912.000,4754.000
4974.000,4930.000,4813.000
5025.000,4935.000,4833.000
4963.000,4890.000,4822.000
4988.000,4894.000,4805.000
5001.000,4892.000,4783.000
5010.000,4815.000,4812.000
4916.000,4913.000,4758.000
4874.000,4811.000,4763.000
4839.000,4798.000,4704.000
4772.000,4740.000,4698.000
4799.000,4621.000,4643.000
4749.000,4579.000,4619.000
4626.000,4546.000,4557.000
4584.000,4508.000,4505.000
4614.000,4407.000,4374.000
4496.000,4372.000,4343.000
4457.000,4391.000,4251.000
4419.000,4277.000,4247.000
4328.000,4223.000,4229.000
4320.000,4317.000,4196.000
4323.000,4284.000,4152.000
4274.000,4173.000,4117.000
4271.000,4133.000,4145.000
4191.000,4121.000,4107.000
4194.000,4140.000,4079.000
4165.000,4124.000,4033.000
4089.000,4049.000,4002.000
4144.000,3974.000,3952.000
4079.000,4072.000,3973.000
4070.000,4055.000,3948.000
4039.000,4016.000,3976.000
4037.000,3963.000,4002.000
4074.000,3961.000,3972.000
4071.000,3966.000,3930.000
4022.000,3988.000,3942.000
3966.000,3936.000,3879.000
4029.000,3958.000,3873.000
3980.000,3908.000,3890.000
4008.000,3941.000,3913.000
3992.000,3903.000,3860.000
3997.000,3907.000,3891.000
3944.000,3913.000,3825.000
3958.000,3899.000,3853.000
3925.000,3840.000,3816.000
3933.000,3844.000,3803.000
3928.000,3812.000,3788.000
3863.000,3859.000,3798.000
3863.000,3819.000,3773.000
3860.000,3822.000,3784.000
3813.000,3829.000,3779.000
3821.000,3764.000,3750.000
3811.000,3725.000,3651.000
3759.000,3739.000,3703.000
3763.000,3699.000,3622.000
3792.000,3684.000,3683.000
3726.000,3686.000,3664.000
3743.000,3642.000,3661.000
3769.000,3623.000,3650.000
3730.000,3685.000,3634.000
3653.000,3597.000,3634.000
3678.000,3625.000,3608.000
3655.000,3613.000,3548.000
3651.000,3586.000,3544.000
3585.000,3544.000,3534.000
3616.000,3594.000,3499.000
3612.000,3575.000,3499.000
3571.000,3528.000,3488.000
3547.000,3483.000,3461.000
3540.000,3478.000,3505.000
3523.000,3459.000,3510.000
3567.000,3493.000,3445.000
3551.000,3495.000,3438.000
3525.000,3471.000,3453.000
3502.000,3513.000,3431.000
3484.000,3425.000,3441.000
3495.000,3460.000,3399.000
3520.000,3462.000,3409.000
3475.000,3438.000,3408.000
3464.000,3495.000,3383.000
3476.000,3395.000,3415.000
3461.000,3477.000,3402.000
3497.000,3440.000,3378.000
3475.000,3401.000,3425.000
3529.000,3438.000,3412.000
3484.000,3386.000,3390.000
3443.000,3417.000,3422.000
3435.000,3402.000,3420.000
3437.000,3389.000,3376.000
3410.000,3398.000,3330.000
3409.000,3393.000,3368.000
3374.000,3388.000,3353.000
3392.000,3402.000,3357.000
3416.000,3364.000,3370.000
3430.000,3373.000,3350.000
3389.000,3381.000,3298.000
3381.000,3327.000,3269.000
3420.000,3331.000,3283.000
3365.000,3324.000,3218.000
3367.000,3333.000,3274.000
3337.000,3313.000,3256.000
3328.000,3293.000,3295.000
3290.000,3264.000,3266.000
3297.000,3259.000,3271.000
3267.000,3284.000,3262.000
3346.000,3277.000,3232.000
3300.000,3256.000,3209.000
3297.000,3188.000,3162.000
3301.000,3230.000,3192.000
3267.000,3158.000,3180.000
3218.000,3196.000,3148.000
3213.000,3188.000,3148.000
3262.000,3161.000,3143.000
3196.000,3198.000,3166.000
3196.000,3180.000,3135.000
3167.000,3152.000,3124.000
3224.000,3184.000,3121.000
3253.000,3150.000,3128.000
3192.000,3173.000,3135.000
3216.000,3129.000,3147.000
3187.000,3160.000,3082.000
3200.000,3128.000,3094.000
3182.000,3143.000,3148.000
3228.000,3144.000,3114.000
3188.000,3176.000,3129.000
3200.000,3128.000,3111.000
3198.000,3167.000,3108.000
3198.000,3196.000,3128.000
3237.000,3175.000,3146.000
3225.000,3185.000,3139.000
3236.000,3172.000,3143.000
3206.000,3182.000,3147.000
3251.000,3151.000,3102.000
3183.000,3146.000,3102.000
3174.000,3178.000,3129.000
3255.000,3187.000,3123.000
3152.000,3115.000,3152.000
3163.000,3131.000,3132.000
3114.000,3130.000,3086.000
3138.000,3099.000,3073.000
3107.000,3107.000,3037.000
3109.000,3145.000,3075.000
3151.000,3111.000,3063.000
3143.000,3054.000,3065.000
3086.000,3074.000,3028.000
3058.000,3059.000,3030.000
3091.000,3073.000,3055.000
3092.000,3052.000,3080.000
3074.000,3026.000,3003.000
3073.000,3031.000,2969.000
3040.000,3042.000,2984.000
3006.000,2974.000,2983.000
3018.000,3009.000,3031.000
3097.000,2998.000,2968.000
3043.000,2983.000,2977.000
3064.000,3003.000,2980.000
3054.000,2985.000,2958.000
3021.000,2970.000,2978.000
3023.000,2956.000,2949.000
3032.000,2946.000,2942.000
3038.000,2975.000,2982.000
3007.000,2998.000,2940.000
3001.000,2988.000,2914.000
3021.000,2939.000,2942.000
2958.000,2976.000,2969.000
2969.000,3000.000,2958.000
3003.000,2978.000,2983.000
2978.000,2984.000,2979.000
3002.000,2962.000,2970.000
3015.000,2995.000,2936.000
3018.000,3014.000,2953.000
3036.000,3032.000,2952.000
2999.000,3002.000,2945.000
3001.000,2964.000,2966.000
3041.000,2956.000,2954.000
3023.000,2930.000,2966.000
2986.000,2957.000,2932.000
3000.000,2913.000,2955.000
3007.000,2993.000,2937.000
3011.000,2950.000,2908.000
2990.000,2924.000,2939.000
2984.000,2927.000,2881.000
2905.000,2861.000,2907.000
2951.000,2948.000,2868.000
2918.000,2869.000,2886.000
2901.000,2828.000,2864.000
2870.000,2873.000,2848.000
2897.000,2877.000,2855.000
2893.000,2884.000,2818.000
2852.000,2857.000,2824.000
2908.000,2831.000,2805.000
2916.000,2865.000,2794.000
2896.000,2867.000,2842.000
2909.000,2839.000,2830.000
2925.000,2871.000,2840.000
2843.000,2816.000,2848.000
2894.000,2897.000,2824.000
2902.000,2881.000,2889.000
2920.000,2881.000,2842.000
2921.000,2867.000,2828.000
2883.000,2866.000,2867.000
2921.000,2864.000,2822.000
2893.000,2819.000,2875.000
2901.000,2854.000,2876.000
2948.000,2913.000,2851.000
2943.000,2848.000,2827.000
2883.000,2866.000,2839.000
2928.000,2843.000,2845.000
2918.000,2908.000,2858.000
2896.000,2869.000,2819.000
2911.000,2856.000,2783.000
2892.000,2826.000,2816.000
2841.000,2835.000,2819.000
2877.000,2829.000,2821.000
2809.000,2811.000,2829.000
2836.000,2776.000,2809.000
2829.000,2831.000,2776.000
2810.000,2745.000,2761.000
2801.000,2785.000,2794.000
2781.000,2765.000,2771.000
2831.000,2785.000,2753.000
2779.000,2748.000,2741.000
2794.000,2776.000,2747.000
2777.000,2740.000,2754.000
2754.000,2711.000,2727.000
2792.000,2748.000,2748.000
2768.000,2749.000,2768.000
2806.000,2723.000,2722.000
2822.000,2783.000,2718.000
2813.000,2765.000,2709.000
2785.000,2774.000,2733.000
2786.000,2764.000,2778.000
2791.000,2759.000,2720.000
2839.000,2750.000,2740.000
2808.000,2776.000,2750.000
2818.000,2767.000,2738.000
2831.000,2798.000,2743.000
2809.000,2820.000,2760.000
2765.000,2784.000,2767.000
2811.000,2788.000,2759.000
2810.000,2787.000,2765.000
2842.000,2775.000,2738.000
2800.000,2767.000,2736.000
2793.000,2787.000,2736.000
2773.000,2743.000,2738.000
2755.000,2745.000,2747.000
2781.000,2711.000,2708.000
2738.000,2729.000,2736.000
2758.000,2720.000,2725.000
2774.000,2786.000,2726.000
2771.000,2739.000,2712.000
2760.000,2725.000,2687.000
2768.000,2719.000,2679.000
2752.000,2744.000,2717.000
2717.000,2724.000,2721.000
2752.000,2694.000,2696.000
2711.000,2667.000,2661.000
2727.000,2722.000,2651.000
2678.000,2685.000,2676.000
2715.000,2641.000,2659.000
2691.000,2653.000,2650.000
2701.000,2673.000,2620.000
2652.000,2663.000,2684.000
2711.000,2668.000,2599.000
2659.000,2675.000,2602.000
2691.000,2641.000,2603.000
2657.000,2633.000,2608.000
2673.000,2650.000,2637.000
2671.000,2618.000,2620.000
2618.000,2621.000,2614.000
2644.000,2632.000,2567.000
2663.000,2615.000,2617.000
2712.000,2593.000,2623.000
2671.000,2631.000,2636.000
2663.000,2662.000,2600.000
2650.000,2636.000,2621.000
2670.000,2634.000,2600.000
2677.000,2672.000,2652.000
2671.000,2637.000,2625.000
2716.000,2675.000,2639.000
2690.000,2659.000,2655.000
2683.000,2705.000,2618.000
2654.000,2687.000,2631.000
2659.000,2687.000,2615.000
2688.000,2627.000,2621.000
2659.000,2691.000,2637.000
2711.000,2645.000,2608.000
2656.000,2623.000,2617.000
2684.000,2646.000,2621.000
2641.000,2605.000,2604.000
2615.000,2654.000,2650.000
2618.000,2639.000,2622.000
2622.000,2628.000,2574.000
2633.000,2628.000,2575.000
2604.000,2593.000,2560.000
2665.000,2549.000,2583.000
2634.000,2559.000,2578.000
2566.000,2581.000,2556.000
2592.000,2558.000,2518.000
2572.000,2547.000,2517.000
2600.000,2552.000,2539.000
2574.000,2572.000,2537.000
2585.000,2525.000,2535.000
2559.000,2512.000,2504.000
2562.000,2515.000,2486.000
2564.000,2511.000,2476.000
2528.000,2497.000,2479.000
2571.000,2506.000,2498.000
2545.000,2534.000,2474.000
2568.000,2520.000,2509.000
2560.000,2533.000,2520.000
2511.000,2544.000,2500.000
2580.000,2577.000,2526.000
2555.000,2536.000,2507.000
2576.000,2545.000,2493.000
2599.000,2591.000,2530.000
2601.000,2544.000,2531.000
2584.000,2539.000,2528.000
2592.000,2555.000,2529.000
2546.000,2538.000,2516.000
2601.000,2553.000,2542.000
2595.000,2566.000,2532.000
2564.000,2539.000,2527.000
2578.000,2556.000,2533.000
2595.000,2559.000,2499.000
2632.000,2476.000,2566.000
2561.000,2518.000,2496.000
2566.000,2535.000,2518.000
2530.000,2492.000,2503.000
2540.000,2495.000,2476.000
2525.000,2547.000,2504.000
2534.000,2463.000,2487.000
2490.000,2485.000,2467.000
2500.000,2472.000,2437.000
2491.000,2471.000,2436.000
2514.000,2514.000,2487.000
2493.000,2514.000,2436.000
2487.000,2477.000,2444.000
2516.000,2444.000,2452.000
2481.000,2475.000,2453.000
2495.000,2478.000,2422.000
2457.000,2416.000,2467.000
2486.000,2467.000,2434.000
2410.000,2452.000,2418.000
2482.000,2471.000,2400.000
2519.000,2425.000,2431.000
2499.000,2468.000,2446.000
2479.000,2493.000,2460.000
2521.000,2495.000,2470.000
2517.000,2503.000,2458.000
2477.000,2511.000,2485.000
2507.000,2484.000,2451.000
2498.000,2474.000,2499.000
2488.000,2496.000,2446.000
2526.000,2488.000,2483.000
2502.000,2502.000,2459.000
2523.000,2467.000,2486.000
2520.000,2505.000,2472.000
2494.000,2464.000,2480.000
2511.000,2461.000,2442.000
2537.000,2493.000,2457.000
2518.000,2467.000,2466.000
2496.000,2441.000,2452.000
2455.000,2465.000,2453.000
2485.000,2428.000,2436.000
2462.000,2445.000,2365.000
2485.000,2442.000,2404.000
2461.000,2420.000,2436.000
2432.000,2381.000,2408.000
2392.000,2394.000,2396.000
2445.000,2412.000,2372.000
2423.000,2398.000,2389.000
2398.000,2442.000,2378.000
2451.000,2360.000,2365.000
2428.000,2419.000,2339.000
2413.000,2355.000,2352.000
2392.000,2349.000,2355.000
2415.000,2377.000,2370.000
2396.000,2351.000,2355.000
2409.000,2390.000,2342.000
2368.000,2390.000,2371.000
2384.000,2371.000,2329.000
2443.000,2330.000,2372.000
2419.000,2373.000,2366.000
2405.000,2378.000,2357.000
2407.000,2371.000,2355.000
2385.000,2369.000,2365.000
2432.000,2382.000,2356.000
2423.000,2421.000,2371.000
2365.000,2365.000,2362.000
2436.000,2341.000,2362.000
2407.000,2387.000,2379.000
2387.000,2408.000,2398.000
2439.000,2392.000,2352.000
2388.000,2370.000,2312.000
2421.000,2374.000,2319.000
2404.000,2371.000,2342.000
2407.000,2400.000,2345.000
2415.000,2372.000,2333.000
2373.000,2355.000,2321.000
2364.000,2345.000,2308.000
2373.000,2365.000,2354.000
2354.000,2349.000,2322.000
2375.000,2321.000,2304.000
2337.000,2318.000,2301.000
2343.000,2327.000,2294.000
2335.000,2322.000,2267.000
2311.000,2314.000,2280.000
2315.000,2245.000,2251.000
2308.000,2303.000,2279.000
2293.000,2265.000,2278.000
2320.000,2264.000,2287.000
2267.000,2278.000,2271.000
2290.000,2283.000,2238.000
2301.000,2247.000,2258.000
2284.000,2270.000,2248.000
2270.000,2274.000,2210.000
2256.000,2206.000,2244.000
2275.000,2228.000,2210.000
2287.000,2217.000,2227.000
2276.000,2223.000,2213.000
2241.000,2227.000,2190.000
2273.000,2213.000,2213.000
2243.000,2227.000,2214.000
2246.000,2180.000,2195.000
2257.000,2248.000,2202.000
2223.000,2208.000,2230.000
2245.000,2215.000,2189.000
2215.000,2227.000,2206.000
2250.000,2227.000,2202.000
2231.000,2216.000,2198.000
2236.000,2217.000,2225.000
2278.000,2243.000,2194.000
2247.000,2211.000,2202.000
2225.000,2213.000,2198.000
2246.000,2209.000,2208.000
2257.000,2226.000,2186.000
2240.000,2219.000,2190.000
2226.000,2226.000,2184.000
2243.000,2223.000,2201.000
2200.000,2236.000,2204.000
2236.000,2196.000,2194.000
2224.000,2226.000,2168.000
2206.000,2187.000,2212.000
2219.000,2190.000,2193.000
2199.000,2172.000,2188.000
2212.000,2204.000,2173.000
2165.000,2140.000,2154.000
2195.000,2158.000,2165.000
2140.000,2180.000,2173.000
2184.000,2162.000,2164.000
2168.000,2154.000,2135.000
2182.000,2146.000,2140.000
2154.000,2119.000,2099.000
2170.000,2124.000,2097.000
2178.000,2129.000,2083.000
2133.000,2123.000,2089.000
2138.000,2102.000,2086.000
2131.000,2122.000,2069.000
2122.000,2084.000,2083.000
2110.000,2096.000,2058.000
2091.000,2080.000,2071.000
2098.000,2062.000,2051.000
2109.000,2087.000,2088.000
2106.000,2080.000,2075.000
2096.000,2070.000,2064.000
2095.000,2044.000,2050.000
2072.000,2074.000,2074.000
2083.000,2061.000,2055.000
2082.000,2064.000,2045.000
2104.000,2077.000,2077.000
2071.000,2084.000,2038.000
2097.000,2071.000,2048.000
2089.000,2034.000,2092.000
2066.000,2059.000,2060.000
2086.000,2082.000,2077.000
2093.000,2107.000,2066.000
2131.000,2082.000,2065.000
2104.000,2067.000,2055.000
2100.000,2083.000,2052.000
2082.000,2107.000,2070.000
2098.000,2055.000,2056.000
2075.000,2068.000,2043.000
2084.000,2080.000,2037.000
2098.000,2082.000,2030.000
2083.000,2070.000,2066.000
2057.000,2068.000,2042.000
2109.000,2059.000,2020.000
2099.000,2034.000,2026.000
2050.000,2069.000,2057.000
2041.000,1992.000,2007.000
2058.000,1996.000,1993.000
2035.000,2022.000,2016.000
2055.000,2019.000,2005.000
2041.000,2009.000,2003.000
2036.000,2003.000,2008.000
2022.000,2017.000,2012.000
1991.000,1992.000,1985.000
1992.000,1973.000,2006.000
2001.000,2009.000,1983.000
1990.000,1976.000,1977.000
2018.000,2014.000,1950.000
1972.000,1982.000,1953.000
1980.000,1958.000,1982.000
1991.000,1944.000,1987.000
1984.000,1956.000,1944.000
1974.000,1955.000,1931.000
1970.000,1929.000,1950.000
1954.000,1945.000,1936.000
1954.000,1930.000,1944.000
1939.000,1941.000,1910.000
1954.000,1929.000,1924.000
1929.000,1923.000,1915.000
1921.000,1917.000,1919.000
1932.000,1919.000,1917.000
1934.000,1905.000,1912.000
1944.000,1908.000,1912.000
1926.000,1916.000,1898.000
1942.000,1901.000,1911.000
1920.000,1927.000,1916.000
1923.000,1897.000,1880.000
1941.000,1893.000,1880.000
1957.000,1884.000,1892.000
1888.000,1901.000,1901.000
1943.000,1905.000,1891.000
1925.000,1882.000,1891.000
1900.000,1891.000,1889.000
1954.000,1922.000,1899.000
1918.000,1883.000,1865.000
1927.000,1909.000,1889.000
1918.000,1896.000,1872.000
1901.000,1902.000,1886.000
1887.000,1912.000,1860.000
1897.000,1895.000,1863.000
1921.000,1869.000,1877.000
1898.000,1887.000,1884.000
1882.000,1849.000,1851.000
1898.000,1881.000,1856.000
1884.000,1894.000,1852.000
1881.000,1851.000,1859.000
1879.000,1845.000,1821.000
1870.000,1841.000,1828.000
1882.000,1850.000,1856.000
1872.000,1829.000,1849.000
1868.000,1812.000,1800.000
1843.000,1841.000,1824.000
1867.000,1828.000,1806.000
1817.000,1803.000,1808.000
1825.000,1805.000,1796.000
1835.000,1817.000,1782.000
1795.000,1805.000,1778.000
1789.000,1808.000,1783.000
1806.000,1772.000,1787.000
1816.000,1747.000,1772.000
1773.000,1773.000,1781.000
1779.000,1780.000,1764.000
1804.000,1775.000,1785.000
1779.000,1773.000,1752.000
1798.000,1774.000,1744.000
1789.000,1781.000,1755.000
1755.000,1772.000,1762.000
1755.000,1727.000,1745.000
1758.000,1767.000,1757.000
1775.000,1741.000,1729.000
1764.000,1774.000,1756.000
1760.000,1740.000,1737.000
1751.000,1742.000,1747.000
1778.000,1750.000,1743.000
1776.000,1743.000,1734.000
1777.000,1723.000,1721.000
1761.000,1734.000,1729.000
1752.000,1737.000,1728.000
1760.000,1735.000,1756.000
1766.000,1730.000,1725.000
1749.000,1734.000,1721.000
1746.000,1722.000,1730.000
1765.000,1728.000,1714.000
1717.000,1732.000,1711.000
1756.000,1714.000,1723.000
1735.000,1711.000,1731.000
1718.000,1713.000,1718.000
1729.000,1690.000,1671.000
1717.000,1704.000,1701.000
1713.000,1710.000,1694.000
1731.000,1701.000,1690.000
1712.000,1689.000,1689.000
1714.000,1705.000,1709.000
1701.000,1691.000,1696.000
1704.000,1694.000,1707.000
1675.000,1691.000,1667.000
1693.000,1674.000,1643.000
1661.000,1670.000,1672.000
1693.000,1660.000,1662.000
1676.000,1654.000,1647.000
1661.000,1645.000,1641.000
1655.000,1655.000,1620.000
1640.000,1635.000,1639.000
1640.000,1643.000,1629.000
