Focus Mode,Read Mode,Exposure Time (sec),Number of Frames,Start Y,End Y,Date,Time,Position (microns)
Single Acquisition,Spectrum,20.000000,3,105,125,2/11/2021,5:41:17 PM,-3494.010000,0.000000,221.990000,

1270.000,1276.000,1268.000
1266.000,1269.000,1260.000
1268.000,1266.000,1272.000
1272.000,1269.000,1268.000
1267.000,1271.000,1268.000
1272.000,1268.000,1272.000
1268.000,1271.000,1268.000
1264.000,1279.000,1267.000
1277.000,1269.000,1268.000
1269.000,1265.000,1274.000
1260.000,1270.000,1274.000
1275.000,1267.000,1268.000
1270.000,1269.000,1269.000
1267.000,1268.000,1271.000
1267.000,1272.000,1272.000
1282.000,1279.000,1271.000
1267.000,1281.000,1278.000
1275.000,1275.000,1270.000
1281.000,1277.000,1272.000
1276.000,1283.000,1279.000
1285.000,1286.000,1284.000
1285.000,1274.000,1283.000
1290.000,1281.000,1290.000
1283.000,1284.000,1289.000
1283.000,1293.000,1288.000
1295.000,1283.000,1293.000
1290.000,1296.000,1295.000
1296.000,1299.000,1292.000
1297.000,1298.000,1303.000
1301.000,1299.000,1299.000
1299.000,1295.000,1297.000
1307.000,1302.000,1306.000
1312.000,1324.000,1308.000
1314.000,1311.000,1304.000
1313.000,1317.000,1321.000
1329.000,1310.000,1318.000
1325.000,1315.000,1333.000
1321.000,1326.000,1328.000
1318.000,1327.000,1325.000
1316.000,1330.000,1331.000
1328.000,1324.000,1335.000
1339.000,1334.000,1343.000
1342.000,1339.000,1351.000
1342.000,1351.000,1358.000
1366.000,1347.000,1344.000
1368.000,1345.000,1341.000
1356.000,1364.000,1359.000
1364.000,1369.000,1357.000
1368.000,1364.000,1375.000
1365.000,1366.000,1385.000
1382.000,1383.000,1382.000
1389.000,1400.000,1384.000
1400.000,1395.000,1404.000
1398.000,1413.000,1413.000
1409.000,1412.000,1420.000
1420.000,1411.000,1417.000
1431.000,1425.000,1431.000
1429.000,1427.000,1442.000
1431.000,1431.000,1435.000
1436.000,1427.000,1447.000
1463.000,1435.000,1463.000
1429.000,1454.000,1462.000
1436.000,1447.000,1448.000
1454.000,1445.000,1444.000
1462.000,1468.000,1437.000
1463.000,1447.000,1459.000
1466.000,1451.000,1464.000
1481.000,1468.000,1463.000
1496.000,1494.000,1498.000
1487.000,1504.000,1522.000
1516.000,1513.000,1534.000
1520.000,1531.000,1537.000
1544.000,1553.000,1554.000
1556.000,1573.000,1575.000
1583.000,1598.000,1600.000
1590.000,1629.000,1630.000
1614.000,1640.000,1641.000
1636.000,1641.000,1652.000
1645.000,1654.000,1669.000
1646.000,1655.000,1680.000
1684.000,1668.000,1679.000
1695.000,1704.000,1715.000
1701.000,1718.000,1712.000
1730.000,1743.000,1738.000
1751.000,1759.000,1751.000
1765.000,1763.000,1754.000
1776.000,1791.000,1777.000
1770.000,1820.000,1816.000
1800.000,1834.000,1799.000
1837.000,1841.000,1804.000
1844.000,1835.000,1835.000
1842.000,1877.000,1872.000
1882.000,1878.000,1931.000
1925.000,1957.000,1955.000
1970.000,1975.000,1970.000
2006.000,2024.000,2023.000
2099.000,2121.000,2076.000
2142.000,2188.000,2193.000
2243.000,2292.000,2305.000
2373.000,2401.000,2405.000
2527.000,2546.000,2524.000
2647.000,2701.000,2648.000
2765.000,2846.000,2821.000
2883.000,2969.000,2946.000
3024.000,3121.000,3068.000
3056.000,3214.000,3106.000
3117.000,3296.000,3261.000
3247.000,3306.000,3232.000
3235.000,3312.000,3288.000
3245.000,3314.000,3251.000
3210.000,3266.000,3218.000
3170.000,3231.000,3159.000
3079.000,3171.000,3115.000
3130.000,3166.000,3106.000
3039.000,3141.000,3123.000
3070.000,3184.000,3113.000
3191.000,3278.000,3286.000
3244.000,3375.000,3402.000
3501.000,3538.000,3554.000
3760.000,3892.000,3885.000
4312.000,4456.000,4546.000
5326.000,5434.000,5577.000
7786.000,7903.000,8223.000
14843.000,14886.000,15863.000
60958.000,63670.000,61805.000
61982.000,61836.000,62255.000
62232.000,62192.000,62170.000
62124.000,62103.000,62096.000
62128.000,62123.000,62112.000
62119.000,62118.000,62107.000
62087.000,62088.000,62085.000
62086.000,62086.000,62083.000
62091.000,62089.000,62088.000
62073.000,62078.000,62081.000
62081.000,62075.000,62078.000
62082.000,62076.000,62077.000
62073.000,62077.000,62078.000
62066.000,62069.000,62077.000
62073.000,62071.000,62078.000
62072.000,62072.000,62072.000
62072.000,62073.000,62072.000
62071.000,62068.000,62071.000
62064.000,62074.000,62073.000
62067.000,62070.000,62069.000
62068.000,62072.000,62069.000
62066.000,62069.000,62065.000
62069.000,62070.000,62067.000
62068.000,62062.000,62067.000
62069.000,62072.000,62066.000
62069.000,62065.000,62065.000
62069.000,62071.000,62065.000
62067.000,62070.000,62062.000
62064.000,62070.000,62065.000
62064.000,62065.000,62067.000
62069.000,62068.000,62064.000
62065.000,62067.000,62066.000
62068.000,62069.000,62064.000
62065.000,62068.000,62069.000
62063.000,62067.000,62065.000
62068.000,62064.000,62066.000
62062.000,62067.000,62070.000
62065.000,62068.000,62066.000
62065.000,62062.000,62066.000
62069.000,62064.000,62074.000
62069.000,62070.000,62070.000
62068.000,62067.000,62067.000
62070.000,62069.000,62072.000
62070.000,62067.000,62069.000
62067.000,62068.000,62066.000
62069.000,62071.000,62066.000
62070.000,62064.000,62066.000
62070.000,62068.000,62072.000
62069.000,62072.000,62069.000
62072.000,62071.000,62068.000
62091.000,62075.000,62070.000
62103.000,62093.000,62075.000
15503.000,63763.000,62093.000
1580.000,1677.000,62077.000
1540.000,1561.000,1715.000
1546.000,1533.000,1552.000
1529.000,1539.000,1540.000
1506.000,1525.000,1531.000
1498.000,1513.000,1521.000
1508.000,1497.000,1510.000
1473.000,1480.000,1482.000
1472.000,1484.000,1486.000
1461.000,1463.000,1464.000
1441.000,1466.000,1476.000
1451.000,1447.000,1450.000
1436.000,1445.000,1444.000
1437.000,1436.000,1447.000
1446.000,1430.000,1435.000
1417.000,1427.000,1458.000
1438.000,1413.000,1450.000
1417.000,1413.000,1417.000
1399.000,1413.000,1411.000
1417.000,1418.000,1403.000
1404.000,1391.000,1417.000
1404.000,1407.000,1398.000
1402.000,1391.000,1390.000
1394.000,1406.000,1395.000
1393.000,1387.000,1387.000
1391.000,1393.000,1387.000
1376.000,1390.000,1400.000
1380.000,1392.000,1389.000
1375.000,1377.000,1392.000
1368.000,1387.000,1382.000
1379.000,1374.000,1380.000
1367.000,1370.000,1377.000
1367.000,1372.000,1368.000
1363.000,1368.000,1371.000
1355.000,1376.000,1382.000
1362.000,1369.000,1363.000
1352.000,1369.000,1349.000
1365.000,1360.000,1357.000
1360.000,1366.000,1353.000
1351.000,1341.000,1357.000
1351.000,1344.000,1354.000
1341.000,1354.000,1350.000
1348.000,1347.000,1344.000
1340.000,1343.000,1352.000
1344.000,1347.000,1348.000
1336.000,1332.000,1355.000
1327.000,1342.000,1340.000
1325.000,1340.000,1345.000
1328.000,1336.000,1338.000
1329.000,1338.000,1322.000
1336.000,1329.000,1326.000
1332.000,1339.000,1331.000
1335.000,1324.000,1327.000
1330.000,1330.000,1335.000
1336.000,1321.000,1331.000
1330.000,1325.000,1318.000
1325.000,1328.000,1323.000
1321.000,1340.000,1324.000
1321.000,1333.000,1327.000
1327.000,1319.000,1323.000
1319.000,1323.000,1321.000
1326.000,1316.000,1325.000
1316.000,1308.000,1314.000
1308.000,1318.000,1318.000
1313.000,1315.000,1317.000
1312.000,1312.000,1318.000
1313.000,1309.000,1316.000
1303.000,1313.000,1302.000
1309.000,1309.000,1301.000
1304.000,1308.000,1313.000
1302.000,1308.000,1312.000
1298.000,1300.000,1313.000
1311.000,1307.000,1303.000
1295.000,1301.000,1306.000
1305.000,1307.000,1307.000
1301.000,1294.000,1305.000
1291.000,1312.000,1308.000
1311.000,1305.000,1306.000
1299.000,1293.000,1299.000
1300.000,1310.000,1297.000
1298.000,1290.000,1303.000
1295.000,1298.000,1297.000
1303.000,1299.000,1301.000
1300.000,1296.000,1303.000
1297.000,1303.000,1300.000
1296.000,1292.000,1292.000
1290.000,1301.000,1295.000
1297.000,1291.000,1293.000
1290.000,1297.000,1288.000
1293.000,1296.000,1296.000
1291.000,1287.000,1299.000
1292.000,1291.000,1288.000
1290.000,1299.000,1294.000
1287.000,1288.000,1298.000
1284.000,1291.000,1294.000
1283.000,1284.000,1289.000
1287.000,1298.000,1289.000
1294.000,1285.000,1295.000
1288.000,1291.000,1290.000
1288.000,1281.000,1287.000
1298.000,1286.000,1287.000
1282.000,1292.000,1291.000
1303.000,1303.000,1297.000
1285.000,1294.000,1295.000
1293.000,1283.000,1292.000
1293.000,1298.000,1294.000
1290.000,1289.000,1301.000
1284.000,1296.000,1294.000
1298.000,1294.000,1301.000
1307.000,1298.000,1299.000
1309.000,1301.000,1304.000
1303.000,1299.000,1309.000
1306.000,1317.000,1314.000
1312.000,1307.000,1316.000
1321.000,1320.000,1311.000
1320.000,1322.000,1319.000
1329.000,1316.000,1331.000
1335.000,1331.000,1335.000
1340.000,1345.000,1337.000
1351.000,1349.000,1367.000
1371.000,1383.000,1362.000
1370.000,1381.000,1391.000
1396.000,1401.000,1392.000
1422.000,1416.000,1414.000
1434.000,1454.000,1456.000
1468.000,1483.000,1481.000
1501.000,1500.000,1494.000
1544.000,1559.000,1542.000
1616.000,1608.000,1580.000
1654.000,1677.000,1632.000
1714.000,1703.000,1709.000
1778.000,1784.000,1813.000
1874.000,1903.000,1890.000
1969.000,1996.000,1961.000
2125.000,2137.000,2116.000
2250.000,2264.000,2247.000
2427.000,2410.000,2416.000
2629.000,2592.000,2607.000
2763.000,2790.000,2766.000
3000.000,3023.000,3009.000
3242.000,3257.000,3229.000
3517.000,3456.000,3495.000
3725.000,3715.000,3701.000
3958.000,3955.000,4019.000
4230.000,4252.000,4231.000
4456.000,4470.000,4463.000
4688.000,4674.000,4683.000
4863.000,4894.000,4889.000
4943.000,5039.000,5079.000
5134.000,5085.000,5110.000
5288.000,5217.000,5249.000
5389.000,5348.000,5370.000
5355.000,5457.000,5409.000
5404.000,5404.000,5418.000
5491.000,5524.000,5521.000
5577.000,5535.000,5446.000
5528.000,5436.000,5531.000
5509.000,5517.000,5552.000
5486.000,5540.000,5459.000
5489.000,5524.000,5489.000
5487.000,5553.000,5475.000
5542.000,5454.000,5464.000
5425.000,5406.000,5478.000
5486.000,5531.000,5483.000
5451.000,5432.000,5440.000
5418.000,5430.000,5435.000
5428.000,5494.000,5408.000
5516.000,5436.000,5441.000
5435.000,5410.000,5456.000
5479.000,5458.000,5484.000
5504.000,5480.000,5473.000
5451.000,5459.000,5461.000
5474.000,5499.000,5494.000
5434.000,5453.000,5514.000
5452.000,5415.000,5392.000
5392.000,5405.000,5437.000
5503.000,5464.000,5434.000
5452.000,5445.000,5460.000
5462.000,5408.000,5421.000
5460.000,5512.000,5417.000
5467.000,5441.000,5411.000
5504.000,5386.000,5451.000
5424.000,5479.000,5405.000
5425.000,5443.000,5467.000
5475.000,5467.000,5415.000
5446.000,5430.000,5457.000
5501.000,5396.000,5401.000
5490.000,5470.000,5463.000
5443.000,5451.000,5450.000
5490.000,5417.000,5434.000
5398.000,5442.000,5455.000
5463.000,5444.000,5463.000
5434.000,5446.000,5476.000
5473.000,5549.000,5506.000
5448.000,5512.000,5481.000
5418.000,5600.000,5502.000
5498.000,5513.000,5457.000
5532.000,5563.000,5542.000
5525.000,5543.000,5482.000
5532.000,5580.000,5599.000
5559.000,5583.000,5571.000
5620.000,5576.000,5532.000
5595.000,5563.000,5585.000
5630.000,5606.000,5665.000
5631.000,5624.000,5608.000
5600.000,5631.000,5546.000
5633.000,5598.000,5659.000
5685.000,5601.000,5606.000
5622.000,5651.000,5662.000
5671.000,5688.000,5649.000
5627.000,5695.000,5680.000
5673.000,5703.000,5700.000
5629.000,5634.000,5729.000
5654.000,5748.000,5771.000
5665.000,5704.000,5678.000
5665.000,5666.000,5750.000
5716.000,5672.000,5710.000
5719.000,5674.000,5746.000
5805.000,5779.000,5718.000
5774.000,5778.000,5700.000
5786.000,5742.000,5781.000
5758.000,5738.000,5819.000
5769.000,5787.000,5768.000
5801.000,5773.000,5797.000
5818.000,5764.000,5767.000
5767.000,5750.000,5771.000
5809.000,5794.000,5854.000
5838.000,5815.000,5796.000
5831.000,5776.000,5806.000
5833.000,5846.000,5873.000
5964.000,5867.000,5866.000
5945.000,5932.000,5903.000
5858.000,5916.000,5891.000
5947.000,5951.000,5856.000
5909.000,5889.000,5871.000
5993.000,5923.000,5963.000
6006.000,5917.000,5950.000
5944.000,6011.000,5972.000
5939.000,6000.000,5985.000
5906.000,6023.000,5926.000
5938.000,5999.000,5939.000
5972.000,5889.000,5905.000
5871.000,5915.000,5933.000
5969.000,5985.000,5967.000
5982.000,6050.000,5981.000
6002.000,5955.000,5948.000
5976.000,6083.000,5954.000
5987.000,6052.000,6056.000
6007.000,6003.000,5980.000
5964.000,5912.000,6029.000
6017.000,6043.000,6056.000
6058.000,6014.000,6004.000
6052.000,5984.000,6058.000
5998.000,6059.000,6039.000
6121.000,6067.000,6059.000
6074.000,6100.000,6032.000
6144.000,6046.000,6055.000
6206.000,6146.000,6114.000
6084.000,6137.000,6168.000
6153.000,6174.000,6135.000
6165.000,6213.000,6189.000
6116.000,6267.000,6227.000
6183.000,6060.000,6177.000
6249.000,6268.000,6198.000
6243.000,6320.000,6280.000
6338.000,6341.000,6365.000
6392.000,6316.000,6352.000
6414.000,6443.000,6430.000
6518.000,6414.000,6461.000
6513.000,6493.000,6469.000
6560.000,6578.000,6633.000
6591.000,6694.000,6606.000
6771.000,6722.000,6776.000
6841.000,6844.000,6817.000
6948.000,6855.000,6910.000
6862.000,6906.000,6923.000
7064.000,6959.000,6951.000
7033.000,7123.000,7039.000
7019.000,7078.000,7148.000
7203.000,7172.000,7133.000
7036.000,7116.000,7131.000
7172.000,7156.000,7169.000
7136.000,7182.000,7157.000
7047.000,7019.000,7081.000
7166.000,7060.000,7041.000
6974.000,7041.000,7124.000
6979.000,6932.000,7018.000
6893.000,6906.000,6955.000
6843.000,6867.000,6944.000
6865.000,6851.000,6736.000
6747.000,6711.000,6721.000
6602.000,6711.000,6652.000
6637.000,6559.000,6647.000
6494.000,6624.000,6543.000
6595.000,6620.000,6534.000
6499.000,6464.000,6487.000
6468.000,6430.000,6526.000
6374.000,6406.000,6362.000
6425.000,6392.000,6338.000
6339.000,6365.000,6333.000
6380.000,6324.000,6303.000
6276.000,6342.000,6300.000
6296.000,6307.000,6308.000
6223.000,6250.000,6286.000
6225.000,6191.000,6173.000
6216.000,6152.000,6216.000
6159.000,6239.000,6199.000
6171.000,6177.000,6174.000
6235.000,6141.000,6184.000
6245.000,6198.000,6167.000
6084.000,6096.000,6089.000
6169.000,6118.000,6118.000
6145.000,6120.000,6098.000
6123.000,6167.000,6159.000
6110.000,6197.000,6124.000
6168.000,6161.000,6096.000
6168.000,6146.000,6129.000
6161.000,6193.000,6113.000
6128.000,6093.000,6086.000
6259.000,6208.000,6239.000
6199.000,6177.000,6193.000
6162.000,6123.000,6215.000
6302.000,6138.000,6112.000
6214.000,6107.000,6167.000
6160.000,6178.000,6237.000
6208.000,6155.000,6151.000
6217.000,6205.000,6158.000
6190.000,6224.000,6129.000
6148.000,6148.000,6131.000
6214.000,6251.000,6162.000
6166.000,6106.000,6145.000
6156.000,6085.000,6094.000
6057.000,6163.000,6145.000
6024.000,6098.000,6068.000
6041.000,6054.000,6110.000
6032.000,6004.000,6045.000
5964.000,5968.000,6072.000
6012.000,5975.000,5952.000
5950.000,5955.000,5954.000
5954.000,5906.000,5927.000
5894.000,5924.000,5924.000
5850.000,5900.000,5844.000
5865.000,5750.000,5943.000
5867.000,5840.000,5790.000
5880.000,5919.000,5862.000
5812.000,5803.000,5868.000
5872.000,5822.000,5839.000
5792.000,5791.000,5885.000
5730.000,5823.000,5780.000
5839.000,5754.000,5765.000
5850.000,5839.000,5739.000
5753.000,5839.000,5743.000
5795.000,5749.000,5797.000
5777.000,5756.000,5776.000
5737.000,5794.000,5742.000
5768.000,5790.000,5841.000
5719.000,5762.000,5761.000
5689.000,5808.000,5743.000
5671.000,5689.000,5681.000
5727.000,5681.000,5697.000
5642.000,5698.000,5678.000
5720.000,5712.000,5685.000
5677.000,5703.000,5728.000
5743.000,5755.000,5687.000
5647.000,5693.000,5693.000
5709.000,5633.000,5686.000
5698.000,5671.000,5729.000
5640.000,5699.000,5712.000
5667.000,5754.000,5655.000
5742.000,5690.000,5653.000
5669.000,5687.000,5724.000
5667.000,5643.000,5667.000
5649.000,5708.000,5662.000
5655.000,5716.000,5692.000
5707.000,5671.000,5706.000
5665.000,5644.000,5672.000
5701.000,5703.000,5648.000
5753.000,5618.000,5713.000
5748.000,5690.000,5672.000
5692.000,5804.000,5710.000
5685.000,5720.000,5640.000
5682.000,5732.000,5631.000
5768.000,5730.000,5635.000
5717.000,5707.000,5739.000
5680.000,5704.000,5705.000
5696.000,5713.000,5683.000
5731.000,5753.000,5704.000
5688.000,5679.000,5713.000
5701.000,5660.000,5777.000
5734.000,5734.000,5683.000
5693.000,5668.000,5703.000
5790.000,5753.000,5759.000
5724.000,5740.000,5678.000
5704.000,5776.000,5776.000
5753.000,5754.000,5731.000
5786.000,5686.000,5767.000
5763.000,5769.000,5742.000
5724.000,5811.000,5776.000
5728.000,5736.000,5642.000
5697.000,5780.000,5728.000
5706.000,5698.000,5719.000
5780.000,5715.000,5771.000
5724.000,5787.000,5776.000
5664.000,5685.000,5694.000
5723.000,5706.000,5729.000
5702.000,5698.000,5654.000
5770.000,5787.000,5744.000
5811.000,5707.000,5658.000
5784.000,5827.000,5755.000
5801.000,5732.000,5830.000
5757.000,5783.000,5723.000
5759.000,5790.000,5758.000
5728.000,5750.000,5827.000
5821.000,5768.000,5777.000
5757.000,5788.000,5790.000
5754.000,5703.000,5753.000
5782.000,5775.000,5774.000
5728.000,5696.000,5780.000
5751.000,5713.000,5777.000
5796.000,5703.000,5696.000
5635.000,5721.000,5679.000
5715.000,5634.000,5773.000
5730.000,5676.000,5716.000
5704.000,5702.000,5769.000
5726.000,5663.000,5752.000
5730.000,5679.000,5736.000
5671.000,5680.000,5671.000
5612.000,5623.000,5662.000
5738.000,5593.000,5707.000
5759.000,5687.000,5672.000
5590.000,5631.000,5661.000
5645.000,5637.000,5620.000
5691.000,5715.000,5608.000
5670.000,5651.000,5647.000
5656.000,5623.000,5634.000
5598.000,5661.000,5641.000
5649.000,5653.000,5642.000
5614.000,5591.000,5574.000
5511.000,5620.000,5599.000
5601.000,5615.000,5614.000
5648.000,5649.000,5700.000
5603.000,5641.000,5684.000
5638.000,5706.000,5596.000
5661.000,5585.000,5648.000
5626.000,5606.000,5620.000
5691.000,5627.000,5627.000
5607.000,5570.000,5604.000
5593.000,5580.000,5671.000
5641.000,5645.000,5586.000
5587.000,5665.000,5653.000
5626.000,5658.000,5648.000
5622.000,5621.000,5575.000
5615.000,5515.000,5550.000
5615.000,5627.000,5586.000
5569.000,5588.000,5558.000
5639.000,5602.000,5601.000
5563.000,5661.000,5671.000
5620.000,5623.000,5580.000
5646.000,5625.000,5635.000
5544.000,5643.000,5583.000
5612.000,5521.000,5554.000
5612.000,5595.000,5635.000
5560.000,5603.000,5623.000
5637.000,5632.000,5609.000
5590.000,5627.000,5658.000
5647.000,5696.000,5628.000
5654.000,5636.000,5646.000
5677.000,5618.000,5717.000
5658.000,5648.000,5688.000
5679.000,5601.000,5622.000
5675.000,5587.000,5671.000
5635.000,5618.000,5627.000
5585.000,5652.000,5655.000
5632.000,5589.000,5653.000
5619.000,5689.000,5660.000
5626.000,5532.000,5659.000
5616.000,5650.000,5590.000
5619.000,5621.000,5682.000
5613.000,5532.000,5549.000
5655.000,5659.000,5579.000
5628.000,5635.000,5652.000
5654.000,5630.000,5615.000
5684.000,5588.000,5610.000
5648.000,5641.000,5670.000
5649.000,5602.000,5626.000
5671.000,5683.000,5662.000
5658.000,5654.000,5586.000
5616.000,5638.000,5677.000
5642.000,5600.000,5583.000
5613.000,5656.000,5655.000
5610.000,5652.000,5672.000
5595.000,5591.000,5666.000
5670.000,5611.000,5576.000
5609.000,5593.000,5546.000
5655.000,5531.000,5610.000
5508.000,5597.000,5596.000
5634.000,5608.000,5628.000
5654.000,5634.000,5567.000
5639.000,5665.000,5574.000
5606.000,5667.000,5695.000
5582.000,5676.000,5643.000
5610.000,5724.000,5650.000
5703.000,5605.000,5664.000
5611.000,5597.000,5674.000
5721.000,5719.000,5664.000
5625.000,5592.000,5662.000
5608.000,5577.000,5610.000
5626.000,5625.000,5680.000
5609.000,5642.000,5637.000
5688.000,5662.000,5714.000
5633.000,5651.000,5704.000
5646.000,5702.000,5610.000
5651.000,5644.000,5669.000
5593.000,5660.000,5649.000
5664.000,5651.000,5629.000
5658.000,5669.000,5675.000
5599.000,5641.000,5618.000
5702.000,5590.000,5637.000
5653.000,5647.000,5636.000
5637.000,5632.000,5618.000
5596.000,5626.000,5611.000
5715.000,5604.000,5622.000
5617.000,5674.000,5674.000
5628.000,5653.000,5639.000
5659.000,5640.000,5694.000
5669.000,5574.000,5670.000
5643.000,5643.000,5696.000
5653.000,5645.000,5604.000
5604.000,5609.000,5629.000
5576.000,5694.000,5667.000
5651.000,5698.000,5645.000
5698.000,5702.000,5616.000
5685.000,5667.000,5641.000
5626.000,5634.000,5624.000
5750.000,5623.000,5680.000
5679.000,5593.000,5772.000
5713.000,5681.000,5743.000
5617.000,5661.000,5591.000
5662.000,5605.000,5674.000
5686.000,5615.000,5689.000
5593.000,5632.000,5710.000
5562.000,5686.000,5665.000
5604.000,5680.000,5622.000
5703.000,5630.000,5577.000
5695.000,5655.000,5632.000
5613.000,5612.000,5601.000
5644.000,5592.000,5628.000
5602.000,5607.000,5617.000
5652.000,5627.000,5657.000
5661.000,5675.000,5687.000
5687.000,5658.000,5678.000
5648.000,5560.000,5712.000
5672.000,5602.000,5657.000
5667.000,5631.000,5663.000
5667.000,5662.000,5644.000
5679.000,5625.000,5716.000
5626.000,5660.000,5607.000
5582.000,5592.000,5652.000
5586.000,5640.000,5649.000
5633.000,5635.000,5706.000
5658.000,5648.000,5658.000
5671.000,5627.000,5583.000
5666.000,5627.000,5703.000
5692.000,5571.000,5576.000
5638.000,5542.000,5536.000
5628.000,5600.000,5663.000
5598.000,5626.000,5710.000
5698.000,5632.000,5655.000
5724.000,5571.000,5690.000
5701.000,5628.000,5619.000
5766.000,5662.000,5683.000
5699.000,5678.000,5682.000
5679.000,5712.000,5681.000
5618.000,5695.000,5748.000
5731.000,5729.000,5693.000
5664.000,5658.000,5747.000
5709.000,5677.000,5773.000
5691.000,5737.000,5699.000
5693.000,5737.000,5759.000
5715.000,5680.000,5710.000
5734.000,5677.000,5683.000
5745.000,5727.000,5728.000
5763.000,5669.000,5719.000
5763.000,5738.000,5729.000
5740.000,5709.000,5736.000
5735.000,5770.000,5789.000
5779.000,5710.000,5746.000
5722.000,5668.000,5771.000
5728.000,5726.000,5727.000
5721.000,5744.000,5651.000
5710.000,5696.000,5711.000
5683.000,5719.000,5762.000
5782.000,5752.000,5731.000
5696.000,5731.000,5770.000
5783.000,5795.000,5816.000
5813.000,5777.000,5777.000
5817.000,5740.000,5769.000
5781.000,5743.000,5730.000
5808.000,5799.000,5767.000
5733.000,5769.000,5734.000
5774.000,5796.000,5855.000
5870.000,5754.000,5808.000
5782.000,5792.000,5744.000
5799.000,5752.000,5769.000
5716.000,5756.000,5817.000
5863.000,5783.000,5805.000
5779.000,5800.000,5799.000
5771.000,5804.000,5870.000
5851.000,5878.000,5772.000
5937.000,5887.000,5908.000
5869.000,5848.000,5848.000
5826.000,5829.000,5927.000
5928.000,5902.000,5810.000
5935.000,5917.000,5944.000
5870.000,5861.000,5817.000
5878.000,5923.000,5849.000
5856.000,5923.000,5932.000
5934.000,5889.000,5866.000
6039.000,5947.000,5925.000
5971.000,5941.000,5939.000
5959.000,5920.000,5974.000
5933.000,5962.000,6056.000
6028.000,5994.000,6060.000
6067.000,6008.000,6055.000
6043.000,6113.000,6086.000
6160.000,6114.000,6150.000
6097.000,6218.000,6160.000
6258.000,6215.000,6108.000
6222.000,6217.000,6247.000
6316.000,6306.000,6337.000
6393.000,6358.000,6348.000
6478.000,6470.000,6430.000
6601.000,6570.000,6613.000
6697.000,6744.000,6717.000
6844.000,6950.000,6823.000
7079.000,6964.000,7060.000
7186.000,7317.000,7301.000
7547.000,7544.000,7621.000
7899.000,7991.000,7995.000
8431.000,8446.000,8338.000
9034.000,8964.000,9047.000
9671.000,9703.000,9718.000
10408.000,10531.000,10502.000
11445.000,11425.000,11338.000
12373.000,12305.000,12361.000
13200.000,13362.000,13216.000
14050.000,13980.000,13978.000
14540.000,14675.000,14696.000
15080.000,15008.000,15026.000
15147.000,15251.000,15175.000
14926.000,14975.000,15079.000
14695.000,14532.000,14597.000
13954.000,13867.000,13973.000
13102.000,13049.000,13160.000
12258.000,12076.000,12070.000
11266.000,11286.000,11251.000
10424.000,10426.000,10279.000
9583.000,9585.000,9641.000
8875.000,8944.000,8867.000
8330.000,8322.000,8289.000
7862.000,7805.000,7876.000
7428.000,7530.000,7393.000
7179.000,7161.000,7114.000
6888.000,6869.000,6868.000
6753.000,6758.000,6707.000
6562.000,6606.000,6445.000
6414.000,6435.000,6462.000
6386.000,6350.000,6346.000
6243.000,6180.000,6227.000
6181.000,6177.000,6153.000
6080.000,6105.000,6051.000
6008.000,6095.000,6032.000
5965.000,5982.000,5944.000
5947.000,5978.000,5928.000
5864.000,5884.000,5896.000
5846.000,5886.000,5789.000
5833.000,5850.000,5863.000
5864.000,5795.000,5929.000
5800.000,5757.000,5797.000
5794.000,5746.000,5784.000
5756.000,5760.000,5782.000
5783.000,5738.000,5709.000
5759.000,5742.000,5711.000
5719.000,5627.000,5721.000
5795.000,5685.000,5679.000
5703.000,5685.000,5678.000
5656.000,5677.000,5699.000
5636.000,5689.000,5673.000
5633.000,5629.000,5624.000
5658.000,5664.000,5623.000
5644.000,5676.000,5642.000
5667.000,5672.000,5596.000
5638.000,5667.000,5617.000
5627.000,5500.000,5639.000
5683.000,5647.000,5639.000
5563.000,5624.000,5678.000
5573.000,5630.000,5625.000
5646.000,5607.000,5600.000
5577.000,5564.000,5658.000
5574.000,5646.000,5579.000
5659.000,5611.000,5546.000
5501.000,5651.000,5597.000
5583.000,5555.000,5555.000
5553.000,5600.000,5599.000
5536.000,5588.000,5540.000
5527.000,5566.000,5616.000
5585.000,5517.000,5551.000
5480.000,5557.000,5554.000
5475.000,5633.000,5592.000
5529.000,5511.000,5554.000
5541.000,5472.000,5516.000
5542.000,5505.000,5519.000
5548.000,5459.000,5569.000
5520.000,5432.000,5441.000
5512.000,5465.000,5557.000
5464.000,5485.000,5485.000
5439.000,5462.000,5433.000
5503.000,5552.000,5501.000
5443.000,5494.000,5511.000
5546.000,5492.000,5512.000
5507.000,5459.000,5505.000
5448.000,5560.000,5482.000
5510.000,5423.000,5432.000
5413.000,5444.000,5410.000
5484.000,5460.000,5480.000
5469.000,5498.000,5465.000
5396.000,5466.000,5539.000
5481.000,5434.000,5434.000
5511.000,5487.000,5498.000
5474.000,5392.000,5463.000
5476.000,5437.000,5481.000
5471.000,5465.000,5436.000
5456.000,5496.000,5487.000
5362.000,5537.000,5488.000
5400.000,5484.000,5444.000
5425.000,5411.000,5467.000
5439.000,5411.000,5397.000
5344.000,5467.000,5503.000
5383.000,5389.000,5434.000
5384.000,5456.000,5413.000
5466.000,5437.000,5424.000
5411.000,5352.000,5452.000
5411.000,5381.000,5346.000
5450.000,5395.000,5421.000
5439.000,5458.000,5372.000
5391.000,5423.000,5501.000
5454.000,5444.000,5440.000
5497.000,5374.000,5443.000
5389.000,5469.000,5406.000
5505.000,5502.000,5470.000
5483.000,5464.000,5468.000
5480.000,5427.000,5429.000
5497.000,5447.000,5419.000
5528.000,5493.000,5524.000
5461.000,5472.000,5463.000
5540.000,5459.000,5498.000
5528.000,5537.000,5507.000
5544.000,5532.000,5551.000
5492.000,5478.000,5554.000
5483.000,5486.000,5553.000
5535.000,5502.000,5509.000
5505.000,5593.000,5607.000
5542.000,5537.000,5488.000
5543.000,5523.000,5486.000
5498.000,5550.000,5539.000
5538.000,5560.000,5531.000
5502.000,5546.000,5558.000
5573.000,5563.000,5600.000
5647.000,5607.000,5595.000
5554.000,5608.000,5572.000
5600.000,5542.000,5566.000
5577.000,5660.000,5638.000
5588.000,5604.000,5671.000
5627.000,5646.000,5660.000
5690.000,5603.000,5667.000
5763.000,5710.000,5635.000
5734.000,5681.000,5698.000
5783.000,5790.000,5800.000
5870.000,5891.000,5854.000
5793.000,5888.000,5872.000
5854.000,5908.000,5880.000
6015.000,5950.000,6012.000
6044.000,6039.000,5970.000
6089.000,6071.000,6049.000
6206.000,6235.000,6171.000
6301.000,6251.000,6280.000
6364.000,6378.000,6386.000
6468.000,6455.000,6504.000
6558.000,6548.000,6539.000
6728.000,6732.000,6740.000
6890.000,6875.000,6872.000
7104.000,7013.000,7012.000
7266.000,7255.000,7272.000
7452.000,7414.000,7439.000
7561.000,7629.000,7600.000
7723.000,7764.000,7737.000
7916.000,7924.000,7875.000
7969.000,7916.000,7952.000
8020.000,8046.000,8069.000
8011.000,8043.000,8050.000
8004.000,8006.000,8057.000
7931.000,7979.000,7879.000
7894.000,7898.000,7937.000
7726.000,7796.000,7772.000
7707.000,7636.000,7588.000
7491.000,7531.000,7413.000
7359.000,7271.000,7313.000
7117.000,7181.000,7147.000
7027.000,7010.000,7061.000
6910.000,6926.000,6828.000
6866.000,6723.000,6823.000
6671.000,6715.000,6631.000
6566.000,6565.000,6573.000
6526.000,6546.000,6504.000
6497.000,6421.000,6467.000
6411.000,6446.000,6485.000
6383.000,6367.000,6407.000
6323.000,6392.000,6445.000
6441.000,6452.000,6364.000
6449.000,6425.000,6530.000
6475.000,6457.000,6402.000
6474.000,6440.000,6460.000
6496.000,6535.000,6546.000
6574.000,6571.000,6511.000
6676.000,6557.000,6575.000
6735.000,6825.000,6693.000
6772.000,6758.000,6729.000
6825.000,6871.000,6743.000
6875.000,6839.000,6835.000
6974.000,6891.000,6965.000
7128.000,7020.000,7145.000
7232.000,7182.000,7173.000
7196.000,7165.000,7148.000
7247.000,7311.000,7272.000
7436.000,7406.000,7363.000
7441.000,7409.000,7476.000
7416.000,7384.000,7446.000
7426.000,7522.000,7538.000
7530.000,7501.000,7517.000
7456.000,7432.000,7447.000
7339.000,7331.000,7424.000
7209.000,7308.000,7234.000
7145.000,7218.000,7210.000
7086.000,6978.000,6977.000
6839.000,6833.000,6838.000
6721.000,6731.000,6655.000
6564.000,6530.000,6575.000
6464.000,6437.000,6418.000
6300.000,6213.000,6282.000
6157.000,6221.000,6243.000
6075.000,6058.000,6045.000
5970.000,5990.000,5913.000
5958.000,5823.000,5915.000
5765.000,5842.000,5871.000
5814.000,5797.000,5795.000
5754.000,5675.000,5727.000
5730.000,5677.000,5717.000
5695.000,5607.000,5611.000
5694.000,5542.000,5645.000
5581.000,5576.000,5623.000
5563.000,5589.000,5535.000
5531.000,5506.000,5532.000
5494.000,5518.000,5568.000
5513.000,5519.000,5495.000
5525.000,5470.000,5499.000
5496.000,5532.000,5553.000
5428.000,5461.000,5483.000
5516.000,5477.000,5491.000
5500.000,5464.000,5464.000
5462.000,5558.000,5468.000
5501.000,5484.000,5498.000
5424.000,5451.000,5409.000
5403.000,5395.000,5355.000
5374.000,5368.000,5379.000
5386.000,5355.000,5399.000
5378.000,5296.000,5285.000
5278.000,5288.000,5261.000
5316.000,5218.000,5289.000
5277.000,5179.000,5199.000
5149.000,5203.000,5133.000
5164.000,5120.000,5213.000
5146.000,5172.000,5180.000
5110.000,5089.000,5093.000
5046.000,5034.000,5048.000
5035.000,5029.000,5040.000
5027.000,5031.000,4992.000
5027.000,5058.000,4967.000
5033.000,4974.000,4945.000
4947.000,4948.000,4955.000
4929.000,4906.000,4907.000
4870.000,4965.000,4900.000
4887.000,4838.000,4847.000
4869.000,4848.000,4817.000
4866.000,4916.000,4852.000
4803.000,4819.000,4773.000
4851.000,4796.000,4821.000
4841.000,4833.000,4830.000
4877.000,4796.000,4767.000
4848.000,4852.000,4790.000
4845.000,4787.000,4876.000
4777.000,4773.000,4788.000
4818.000,4769.000,4771.000
4776.000,4768.000,4744.000
4749.000,4766.000,4753.000
4772.000,4749.000,4853.000
4760.000,4738.000,4714.000
4799.000,4703.000,4694.000
4669.000,4697.000,4635.000
4667.000,4677.000,4656.000
4728.000,4644.000,4707.000
4667.000,4682.000,4616.000
4673.000,4647.000,4726.000
4653.000,4641.000,4653.000
4617.000,4620.000,4583.000
4613.000,4585.000,4570.000
4587.000,4610.000,4570.000
4670.000,4580.000,4635.000
4553.000,4628.000,4625.000
4555.000,4568.000,4577.000
4572.000,4539.000,4568.000
4542.000,4604.000,4537.000
4504.000,4552.000,4560.000
4612.000,4625.000,4604.000
4603.000,4562.000,4555.000
4563.000,4535.000,4545.000
4573.000,4576.000,4525.000
4568.000,4558.000,4540.000
4600.000,4651.000,4569.000
4558.000,4526.000,4591.000
4564.000,4624.000,4521.000
4588.000,4566.000,4499.000
4582.000,4500.000,4489.000
4500.000,4567.000,4546.000
4551.000,4508.000,4491.000
4488.000,4552.000,4510.000
4531.000,4501.000,4486.000
4528.000,4516.000,4485.000
4513.000,4555.000,4522.000
4552.000,4490.000,4517.000
4541.000,4501.000,4507.000
4549.000,4483.000,4442.000
4534.000,4521.000,4540.000
4561.000,4588.000,4519.000
4549.000,4543.000,4541.000
4526.000,4527.000,4495.000
4607.000,4542.000,4533.000
4555.000,4570.000,4521.000
4582.000,4599.000,4585.000
4574.000,4590.000,4560.000
4488.000,4550.000,4519.000
4541.000,4492.000,4609.000
4578.000,4549.000,4498.000
4532.000,4515.000,4530.000
4535.000,4526.000,4493.000
4557.000,4512.000,4487.000
4560.000,4446.000,4482.000
4495.000,4516.000,4543.000
4544.000,4484.000,4420.000
4562.000,4522.000,4558.000
4493.000,4488.000,4525.000
4541.000,4536.000,4509.000
4599.000,4563.000,4539.000
4557.000,4568.000,4548.000
4581.000,4563.000,4539.000
4564.000,4620.000,4574.000
4556.000,4571.000,4647.000
4594.000,4654.000,4598.000
4575.000,4565.000,4558.000
4582.000,4557.000,4509.000
4532.000,4592.000,4569.000
4591.000,4546.000,4579.000
4570.000,4540.000,4529.000
4643.000,4636.000,4584.000
4589.000,4583.000,4598.000
4595.000,4600.000,4577.000
4663.000,4623.000,4675.000
4608.000,4694.000,4680.000
4681.000,4631.000,4674.000
4617.000,4668.000,4714.000
4661.000,4670.000,4698.000
4690.000,4639.000,4665.000
4635.000,4618.000,4684.000
4747.000,4710.000,4701.000
4651.000,4700.000,4721.000
4672.000,4616.000,4643.000
4637.000,4648.000,4621.000
4668.000,4631.000,4606.000
4704.000,4689.000,4633.000
4686.000,4696.000,4656.000
4674.000,4709.000,4688.000
4686.000,4712.000,4664.000
4746.000,4737.000,4670.000
4754.000,4755.000,4772.000
4716.000,4750.000,4766.000
4838.000,4796.000,4775.000
4787.000,4794.000,4813.000
4827.000,4837.000,4862.000
4806.000,4756.000,4806.000
4860.000,4792.000,4798.000
4875.000,4793.000,4792.000
4802.000,4838.000,4843.000
4879.000,4823.000,4862.000
4843.000,4822.000,4884.000
4907.000,4852.000,4877.000
4899.000,4892.000,4907.000
4924.000,4904.000,4999.000
5035.000,4970.000,5059.000
5003.000,5055.000,5108.000
5130.000,5144.000,5163.000
5223.000,5159.000,5279.000
5275.000,5288.000,5277.000
5330.000,5424.000,5320.000
5406.000,5480.000,5353.000
5571.000,5447.000,5479.000
5493.000,5440.000,5503.000
5501.000,5489.000,5511.000
5500.000,5567.000,5462.000
5476.000,5450.000,5497.000
5490.000,5542.000,5522.000
5534.000,5501.000,5505.000
5400.000,5499.000,5403.000
5471.000,5462.000,5451.000
5326.000,5417.000,5409.000
5398.000,5301.000,5297.000
5311.000,5254.000,5287.000
5245.000,5257.000,5247.000
5173.000,5178.000,5213.000
5213.000,5149.000,5141.000
5227.000,5110.000,5132.000
5064.000,5178.000,5129.000
5058.000,5109.000,5081.000
4904.000,5049.000,4951.000
4973.000,4929.000,4986.000
4947.000,4982.000,4960.000
4905.000,4861.000,4970.000
4881.000,4817.000,4897.000
4865.000,4809.000,4841.000
4818.000,4810.000,4819.000
4840.000,4792.000,4850.000
4779.000,4760.000,4742.000
4772.000,4781.000,4684.000
4761.000,4768.000,4702.000
4737.000,4739.000,4692.000
4779.000,4706.000,4719.000
4747.000,4706.000,4746.000
4777.000,4747.000,4744.000
4750.000,4777.000,4684.000
4755.000,4712.000,4708.000
4721.000,4715.000,4706.000
4809.000,4744.000,4659.000
4739.000,4723.000,4782.000
4715.000,4715.000,4758.000
4777.000,4763.000,4717.000
4737.000,4820.000,4783.000
4807.000,4713.000,4723.000
4772.000,4674.000,4761.000
4729.000,4738.000,4765.000
4704.000,4736.000,4702.000
4681.000,4689.000,4732.000
4743.000,4703.000,4728.000
4695.000,4733.000,4672.000
4684.000,4666.000,4673.000
4664.000,4678.000,4689.000
4635.000,4606.000,4633.000
4641.000,4564.000,4648.000
4569.000,4581.000,4639.000
4668.000,4567.000,4661.000
4560.000,4615.000,4619.000
4593.000,4581.000,4598.000
4647.000,4574.000,4594.000
4632.000,4630.000,4657.000
4599.000,4599.000,4647.000
4632.000,4625.000,4596.000
4663.000,4654.000,4669.000
4639.000,4584.000,4646.000
4654.000,4629.000,4687.000
4665.000,4659.000,4720.000
4680.000,4644.000,4700.000
4619.000,4691.000,4707.000
4696.000,4706.000,4613.000
4595.000,4628.000,4606.000
4615.000,4566.000,4603.000
4606.000,4652.000,4631.000
4613.000,4588.000,4631.000
4656.000,4612.000,4578.000
4591.000,4573.000,4522.000
4597.000,4563.000,4553.000
4557.000,4548.000,4520.000
4537.000,4534.000,4577.000
4566.000,4522.000,4539.000
4529.000,4512.000,4540.000
4533.000,4539.000,4538.000
4532.000,4485.000,4556.000
4564.000,4496.000,4516.000
4575.000,4477.000,4547.000
4608.000,4565.000,4541.000
4557.000,4471.000,4546.000
4547.000,4521.000,4578.000
4577.000,4542.000,4549.000
4524.000,4509.000,4555.000
4643.000,4546.000,4526.000
4547.000,4534.000,4547.000
4519.000,4511.000,4579.000
4633.000,4572.000,4569.000
4569.000,4553.000,4613.000
4555.000,4610.000,4614.000
4592.000,4556.000,4534.000
4570.000,4527.000,4576.000
4539.000,4527.000,4573.000
4560.000,4555.000,4611.000
4582.000,4516.000,4566.000
4561.000,4618.000,4598.000
4608.000,4624.000,4581.000
4608.000,4608.000,4566.000
4582.000,4602.000,4547.000
4515.000,4548.000,4624.000
4563.000,4637.000,4612.000
4627.000,4581.000,4639.000
4620.000,4622.000,4667.000
4619.000,4648.000,4597.000
4595.000,4658.000,4581.000
4617.000,4637.000,4631.000
4632.000,4580.000,4631.000
4655.000,4606.000,4623.000
4629.000,4679.000,4635.000
4659.000,4647.000,4676.000
4714.000,4576.000,4601.000
4631.000,4586.000,4587.000
4619.000,4646.000,4656.000
4655.000,4651.000,4633.000
4669.000,4644.000,4627.000
4550.000,4613.000,4597.000
4581.000,4600.000,4643.000
4628.000,4532.000,4627.000
4580.000,4617.000,4600.000
4618.000,4571.000,4619.000
4637.000,4612.000,4665.000
4600.000,4683.000,4674.000
4650.000,4652.000,4673.000
4683.000,4621.000,4640.000
4670.000,4636.000,4622.000
4614.000,4657.000,4731.000
4710.000,4668.000,4700.000
4635.000,4598.000,4597.000
4706.000,4695.000,4671.000
4743.000,4669.000,4731.000
4661.000,4716.000,4717.000
4673.000,4682.000,4721.000
4728.000,4670.000,4713.000
4740.000,4701.000,4684.000
4680.000,4692.000,4696.000
4686.000,4673.000,4687.000
4703.000,4755.000,4730.000
4735.000,4774.000,4717.000
4705.000,4692.000,4654.000
4762.000,4669.000,4685.000
4716.000,4641.000,4758.000
4721.000,4752.000,4715.000
4699.000,4730.000,4683.000
4723.000,4634.000,4723.000
4687.000,4704.000,4731.000
4716.000,4748.000,4743.000
4727.000,4667.000,4710.000
4776.000,4699.000,4713.000
4775.000,4703.000,4657.000
4750.000,4710.000,4740.000
4750.000,4773.000,4740.000
4794.000,4720.000,4740.000
4752.000,4719.000,4746.000
4797.000,4786.000,4755.000
4811.000,4821.000,4784.000
4821.000,4802.000,4860.000
4810.000,4824.000,4819.000
4887.000,4951.000,4887.000
4940.000,4901.000,4885.000
4989.000,4921.000,5013.000
4906.000,4984.000,5004.000
4966.000,4954.000,4998.000
5004.000,5028.000,4982.000
5015.000,5039.000,5063.000
5068.000,5107.000,5121.000
5065.000,5069.000,5057.000
5171.000,5159.000,5199.000
5252.000,5187.000,5172.000
5310.000,5287.000,5364.000
5396.000,5377.000,5398.000
5502.000,5414.000,5476.000
5527.000,5524.000,5455.000
5631.000,5594.000,5646.000
5756.000,5713.000,5719.000
5848.000,5874.000,5889.000
5996.000,6013.000,6009.000
6163.000,6129.000,6110.000
6265.000,6305.000,6282.000
6390.000,6371.000,6476.000
6471.000,6483.000,6479.000
6567.000,6583.000,6546.000
6627.000,6603.000,6667.000
6664.000,6666.000,6613.000
6765.000,6729.000,6616.000
6537.000,6576.000,6561.000
6531.000,6553.000,6543.000
6418.000,6418.000,6391.000
6181.000,6254.000,6282.000
6149.000,6105.000,6123.000
5970.000,5858.000,5872.000
5727.000,5732.000,5747.000
5528.000,5573.000,5597.000
5423.000,5391.000,5456.000
5315.000,5289.000,5287.000
5201.000,5182.000,5192.000
5105.000,5058.000,5078.000
5062.000,4990.000,4999.000
4940.000,4894.000,4979.000
4913.000,4896.000,4857.000
4837.000,4824.000,4762.000
4851.000,4788.000,4772.000
4748.000,4784.000,4773.000
4837.000,4796.000,4784.000
4841.000,4710.000,4813.000
4775.000,4681.000,4748.000
4754.000,4689.000,4699.000
4739.000,4709.000,4703.000
4810.000,4820.000,4803.000
4750.000,4761.000,4686.000
4756.000,4781.000,4806.000
4764.000,4744.000,4743.000
4817.000,4723.000,4763.000
4776.000,4750.000,4755.000
4744.000,4760.000,4749.000
4704.000,4741.000,4758.000
4719.000,4730.000,4620.000
4659.000,4618.000,4737.000
4583.000,4637.000,4628.000
4584.000,4583.000,4581.000
4548.000,4549.000,4502.000
4506.000,4510.000,4515.000
4418.000,4378.000,4474.000
4376.000,4389.000,4425.000
4320.000,4349.000,4358.000
4315.000,4302.000,4291.000
4251.000,4280.000,4218.000
4164.000,4223.000,4181.000
4147.000,4164.000,4140.000
4151.000,4117.000,4083.000
4088.000,4137.000,4100.000
4107.000,4089.000,4047.000
4056.000,4023.000,4053.000
4044.000,4027.000,4009.000
3984.000,3989.000,3990.000
3970.000,4018.000,3991.000
3984.000,3965.000,3918.000
3931.000,3931.000,3971.000
3940.000,3905.000,3875.000
3903.000,3857.000,3887.000
3847.000,3838.000,3873.000
3795.000,3843.000,3856.000
3899.000,3870.000,3839.000
3850.000,3855.000,3829.000
3855.000,3873.000,3847.000
3869.000,3823.000,3836.000
3799.000,3838.000,3824.000
3836.000,3788.000,3800.000
3816.000,3763.000,3831.000
3800.000,3812.000,3832.000
3791.000,3766.000,3769.000
3799.000,3815.000,3757.000
3736.000,3787.000,3814.000
3718.000,3782.000,3752.000
3797.000,3718.000,3755.000
3754.000,3750.000,3767.000
3696.000,3715.000,3759.000
3684.000,3689.000,3695.000
3723.000,3688.000,3716.000
3648.000,3677.000,3628.000
3671.000,3697.000,3644.000
3663.000,3611.000,3633.000
3642.000,3604.000,3617.000
3567.000,3609.000,3627.000
3617.000,3570.000,3614.000
3594.000,3560.000,3595.000
3513.000,3595.000,3557.000
3621.000,3550.000,3541.000
3557.000,3526.000,3511.000
3486.000,3574.000,3533.000
3480.000,3527.000,3501.000
3535.000,3514.000,3443.000
3509.000,3488.000,3550.000
3489.000,3489.000,3450.000
3475.000,3412.000,3460.000
3443.000,3403.000,3421.000
3455.000,3446.000,3368.000
3425.000,3441.000,3457.000
3377.000,3385.000,3392.000
3385.000,3386.000,3378.000
3376.000,3381.000,3382.000
3395.000,3332.000,3379.000
3410.000,3339.000,3342.000
3340.000,3411.000,3365.000
3309.000,3385.000,3333.000
3368.000,3299.000,3310.000
3340.000,3338.000,3338.000
3364.000,3328.000,3338.000
3386.000,3332.000,3333.000
3307.000,3333.000,3385.000
3331.000,3353.000,3421.000
3368.000,3344.000,3347.000
3379.000,3334.000,3343.000
3349.000,3355.000,3331.000
3341.000,3335.000,3312.000
3302.000,3319.000,3318.000
3285.000,3291.000,3312.000
3359.000,3303.000,3312.000
3314.000,3304.000,3343.000
3302.000,3300.000,3301.000
3273.000,3332.000,3278.000
3309.000,3319.000,3307.000
3254.000,3262.000,3285.000
3267.000,3249.000,3262.000
3285.000,3226.000,3257.000
3270.000,3248.000,3242.000
3224.000,3191.000,3249.000
3216.000,3215.000,3293.000
3186.000,3202.000,3214.000
3208.000,3192.000,3174.000
3161.000,3203.000,3198.000
3182.000,3215.000,3224.000
3195.000,3204.000,3216.000
3226.000,3148.000,3194.000
3214.000,3184.000,3144.000
3189.000,3155.000,3183.000
3144.000,3124.000,3158.000
3170.000,3108.000,3153.000
3153.000,3097.000,3135.000
3138.000,3103.000,3069.000
3087.000,3087.000,3052.000
3098.000,3117.000,3069.000
3106.000,3086.000,3149.000
3078.000,3136.000,3089.000
3070.000,3096.000,3097.000
3077.000,3095.000,3062.000
3102.000,3042.000,3085.000
3080.000,3043.000,3068.000
3090.000,3062.000,3076.000
3060.000,3070.000,3054.000
3094.000,3088.000,3097.000
3055.000,3107.000,3087.000
3060.000,3055.000,3108.000
3095.000,3093.000,3062.000
3119.000,3092.000,3078.000
3111.000,3143.000,3084.000
3083.000,3059.000,3032.000
3061.000,3077.000,3086.000
3046.000,3138.000,3058.000
3067.000,3103.000,3097.000
3048.000,3092.000,3040.000
3097.000,3049.000,3035.000
3090.000,3040.000,3051.000
3083.000,3065.000,3061.000
3070.000,3091.000,3041.000
3063.000,3094.000,3067.000
3027.000,3075.000,3058.000
3058.000,3026.000,3064.000
2993.000,3026.000,3063.000
3002.000,3024.000,3014.000
2967.000,3059.000,3014.000
3028.000,3032.000,3042.000
3028.000,2963.000,2997.000
3041.000,2991.000,3022.000
3020.000,3037.000,3029.000
2975.000,2952.000,2945.000
2967.000,3019.000,3002.000
3024.000,2977.000,3010.000
2956.000,2971.000,2967.000
2937.000,2991.000,2939.000
2947.000,2958.000,2967.000
2933.000,2914.000,2979.000
2928.000,2922.000,2929.000
2956.000,2954.000,2885.000
2910.000,2918.000,2904.000
2920.000,2897.000,2947.000
2940.000,2944.000,2945.000
2900.000,2959.000,2916.000
2876.000,2900.000,2892.000
2897.000,2957.000,2897.000
2943.000,2887.000,2905.000
2905.000,2895.000,2907.000
2898.000,2935.000,2881.000
2913.000,2894.000,2901.000
2927.000,2862.000,2890.000
2923.000,2922.000,2875.000
2887.000,2889.000,2904.000
2893.000,2901.000,2899.000
2911.000,2908.000,2900.000
2856.000,2916.000,2898.000
2942.000,2927.000,2928.000
2942.000,2869.000,2915.000
2886.000,2918.000,2855.000
2906.000,2884.000,2937.000
2896.000,2892.000,2865.000
2873.000,2913.000,2873.000
2904.000,2893.000,2878.000
2912.000,2889.000,2894.000
2890.000,2877.000,2884.000
2867.000,2907.000,2863.000
2851.000,2896.000,2841.000
2873.000,2828.000,2833.000
2831.000,2825.000,2900.000
2844.000,2823.000,2829.000
2817.000,2856.000,2839.000
2868.000,2763.000,2782.000
2793.000,2772.000,2771.000
2838.000,2796.000,2793.000
2766.000,2819.000,2787.000
2737.000,2780.000,2776.000
2841.000,2792.000,2758.000
2799.000,2770.000,2751.000
2756.000,2784.000,2764.000
2809.000,2781.000,2780.000
2769.000,2750.000,2774.000
2769.000,2771.000,2792.000
2799.000,2788.000,2796.000
2780.000,2771.000,2794.000
2791.000,2752.000,2799.000
2825.000,2765.000,2789.000
2820.000,2802.000,2771.000
2823.000,2813.000,2761.000
2781.000,2830.000,2816.000
2798.000,2817.000,2784.000
2806.000,2781.000,2799.000
2808.000,2812.000,2801.000
2760.000,2773.000,2817.000
2817.000,2795.000,2805.000
2780.000,2820.000,2780.000
2757.000,2766.000,2773.000
2762.000,2771.000,2731.000
2776.000,2779.000,2776.000
2803.000,2775.000,2774.000
2739.000,2758.000,2799.000
2742.000,2747.000,2732.000
2720.000,2770.000,2739.000
2717.000,2698.000,2710.000
2683.000,2736.000,2731.000
2679.000,2730.000,2690.000
2664.000,2684.000,2699.000
2653.000,2691.000,2711.000
2712.000,2719.000,2743.000
2703.000,2706.000,2712.000
2679.000,2669.000,2692.000
2670.000,2685.000,2702.000
2680.000,2695.000,2695.000
2695.000,2663.000,2686.000
2724.000,2678.000,2680.000
2694.000,2674.000,2674.000
2699.000,2654.000,2685.000
2681.000,2707.000,2690.000
2702.000,2662.000,2678.000
2655.000,2699.000,2703.000
2703.000,2689.000,2698.000
2707.000,2714.000,2715.000
2756.000,2692.000,2684.000
2681.000,2724.000,2670.000
2701.000,2706.000,2695.000
2716.000,2724.000,2724.000
2667.000,2684.000,2720.000
2723.000,2733.000,2715.000
2706.000,2692.000,2702.000
2678.000,2711.000,2692.000
2697.000,2687.000,2710.000
2686.000,2668.000,2648.000
2680.000,2665.000,2670.000
2707.000,2736.000,2728.000
2679.000,2674.000,2674.000
2690.000,2679.000,2710.000
2643.000,2706.000,2639.000
2676.000,2636.000,2662.000
2625.000,2658.000,2626.000
2652.000,2629.000,2663.000
2627.000,2646.000,2659.000
2642.000,2616.000,2622.000
2624.000,2622.000,2612.000
2609.000,2651.000,2630.000
2646.000,2607.000,2603.000
2622.000,2571.000,2587.000
2587.000,2594.000,2603.000
2605.000,2586.000,2624.000
2567.000,2585.000,2584.000
2564.000,2574.000,2592.000
2557.000,2559.000,2595.000
2583.000,2562.000,2589.000
2570.000,2580.000,2584.000
2573.000,2569.000,2535.000
2559.000,2548.000,2574.000
2556.000,2529.000,2529.000
2532.000,2546.000,2543.000
2555.000,2578.000,2563.000
2563.000,2570.000,2578.000
2571.000,2553.000,2573.000
2577.000,2552.000,2545.000
2534.000,2544.000,2558.000
2574.000,2544.000,2568.000
2568.000,2593.000,2555.000
2563.000,2596.000,2540.000
2569.000,2603.000,2553.000
2561.000,2566.000,2603.000
2576.000,2541.000,2557.000
2569.000,2562.000,2595.000
2567.000,2584.000,2586.000
2580.000,2553.000,2587.000
2574.000,2584.000,2596.000
2617.000,2554.000,2614.000
2537.000,2529.000,2577.000
2568.000,2571.000,2569.000
2533.000,2521.000,2556.000
2523.000,2530.000,2559.000
2553.000,2545.000,2597.000
2576.000,2544.000,2574.000
2569.000,2558.000,2537.000
2551.000,2535.000,2531.000
2531.000,2528.000,2566.000
2545.000,2511.000,2531.000
2544.000,2504.000,2501.000
2507.000,2488.000,2534.000
2507.000,2500.000,2489.000
2511.000,2508.000,2468.000
2452.000,2495.000,2477.000
2440.000,2479.000,2460.000
2462.000,2495.000,2449.000
2497.000,2468.000,2510.000
2444.000,2445.000,2462.000
2453.000,2487.000,2459.000
2423.000,2438.000,2447.000
2454.000,2477.000,2462.000
2445.000,2466.000,2448.000
2493.000,2477.000,2439.000
2485.000,2478.000,2454.000
2479.000,2485.000,2486.000
2482.000,2427.000,2489.000
2473.000,2438.000,2465.000
2439.000,2457.000,2458.000
2503.000,2508.000,2489.000
2497.000,2486.000,2467.000
2459.000,2491.000,2472.000
2476.000,2474.000,2491.000
2448.000,2468.000,2487.000
2483.000,2449.000,2473.000
2477.000,2444.000,2491.000
2505.000,2482.000,2510.000
2474.000,2476.000,2493.000
2445.000,2466.000,2475.000
2458.000,2478.000,2458.000
2462.000,2475.000,2462.000
2435.000,2452.000,2434.000
2463.000,2473.000,2401.000
2460.000,2459.000,2455.000
2431.000,2470.000,2467.000
2446.000,2422.000,2451.000
2407.000,2430.000,2423.000
2464.000,2409.000,2416.000
2415.000,2384.000,2409.000
2391.000,2435.000,2428.000
2422.000,2436.000,2390.000
2394.000,2381.000,2420.000
2396.000,2389.000,2389.000
2374.000,2380.000,2386.000
2355.000,2403.000,2369.000
2394.000,2376.000,2367.000
2364.000,2351.000,2378.000
2374.000,2394.000,2351.000
2386.000,2364.000,2378.000
2402.000,2386.000,2412.000
2402.000,2401.000,2378.000
2375.000,2385.000,2385.000
2409.000,2381.000,2382.000
2427.000,2389.000,2408.000
2474.000,2412.000,2402.000
2398.000,2429.000,2402.000
2431.000,2383.000,2413.000
2443.000,2424.000,2410.000
2420.000,2394.000,2394.000
2400.000,2433.000,2426.000
2393.000,2393.000,2389.000
2388.000,2439.000,2439.000
2385.000,2438.000,2395.000
2377.000,2410.000,2418.000
2408.000,2393.000,2418.000
2402.000,2389.000,2379.000
2387.000,2418.000,2385.000
2395.000,2400.000,2370.000
2378.000,2358.000,2362.000
2374.000,2353.000,2394.000
2350.000,2334.000,2381.000
2354.000,2336.000,2345.000
2364.000,2354.000,2347.000
2347.000,2343.000,2344.000
2352.000,2313.000,2355.000
2313.000,2317.000,2312.000
2320.000,2332.000,2300.000
2353.000,2321.000,2297.000
2329.000,2290.000,2328.000
2323.000,2319.000,2310.000
2269.000,2296.000,2275.000
2266.000,2297.000,2298.000
2291.000,2319.000,2322.000
2302.000,2287.000,2310.000
2290.000,2280.000,2297.000
2307.000,2318.000,2340.000
2305.000,2287.000,2315.000
2317.000,2306.000,2314.000
2338.000,2327.000,2310.000
2331.000,2336.000,2305.000
2340.000,2329.000,2316.000
2331.000,2282.000,2293.000
2314.000,2318.000,2326.000
2334.000,2297.000,2299.000
2331.000,2343.000,2305.000
2300.000,2291.000,2319.000
2315.000,2293.000,2339.000
2306.000,2316.000,2334.000
2309.000,2283.000,2289.000
2299.000,2275.000,2323.000
2306.000,2287.000,2293.000
2289.000,2307.000,2288.000
2248.000,2263.000,2290.000
2295.000,2284.000,2257.000
2282.000,2279.000,2307.000
2285.000,2276.000,2290.000
2284.000,2274.000,2269.000
2276.000,2255.000,2299.000
2244.000,2219.000,2251.000
2230.000,2276.000,2254.000
2249.000,2256.000,2266.000
2247.000,2244.000,2234.000
2221.000,2270.000,2199.000
2227.000,2216.000,2209.000
2272.000,2216.000,2205.000
2224.000,2222.000,2212.000
2215.000,2217.000,2216.000
2218.000,2208.000,2193.000
2203.000,2206.000,2231.000
2188.000,2238.000,2171.000
2170.000,2161.000,2157.000
2211.000,2162.000,2159.000
2157.000,2197.000,2158.000
2170.000,2178.000,2216.000
2171.000,2124.000,2158.000
2187.000,2152.000,2146.000
2176.000,2152.000,2162.000
2158.000,2178.000,2175.000
2173.000,2171.000,2162.000
2175.000,2133.000,2148.000
2181.000,2170.000,2171.000
2158.000,2138.000,2168.000
2161.000,2159.000,2153.000
2140.000,2161.000,2134.000
2154.000,2208.000,2164.000
2197.000,2175.000,2138.000
2137.000,2176.000,2117.000
2160.000,2170.000,2162.000
2165.000,2157.000,2146.000
2165.000,2146.000,2136.000
2179.000,2148.000,2149.000
2173.000,2163.000,2173.000
2153.000,2130.000,2151.000
2148.000,2138.000,2151.000
2136.000,2139.000,2133.000
2153.000,2126.000,2152.000
2146.000,2137.000,2130.000
2120.000,2132.000,2127.000
2130.000,2110.000,2158.000
2127.000,2158.000,2148.000
2141.000,2109.000,2130.000
2119.000,2131.000,2120.000
2132.000,2104.000,2118.000
2110.000,2105.000,2132.000
2134.000,2126.000,2093.000
2091.000,2113.000,2087.000
2099.000,2090.000,2137.000
2082.000,2087.000,2099.000
2081.000,2065.000,2077.000
2078.000,2077.000,2045.000
2080.000,2035.000,2062.000
2058.000,2034.000,2049.000
2059.000,2051.000,2037.000
2091.000,2040.000,2085.000
2067.000,2051.000,2030.000
2017.000,2055.000,2027.000
2034.000,2022.000,2044.000
2046.000,2030.000,2040.000
1993.000,2043.000,2035.000
2039.000,2017.000,2031.000
2022.000,2036.000,2026.000
2022.000,2019.000,2055.000
2023.000,2024.000,2029.000
2016.000,1999.000,2030.000
2012.000,1993.000,2044.000
1994.000,2008.000,2002.000
2002.000,2034.000,2028.000
2061.000,2010.000,2049.000
2017.000,2037.000,2027.000
2021.000,2032.000,1992.000
2044.000,2058.000,2065.000
2042.000,2017.000,2032.000
2049.000,2027.000,2030.000
2018.000,2032.000,2039.000
2024.000,2010.000,2045.000
2014.000,2025.000,2020.000
2022.000,1987.000,1984.000
2015.000,2014.000,2030.000
2033.000,2010.000,2018.000
2021.000,2011.000,2025.000
1981.000,1997.000,2007.000
2013.000,2001.000,1968.000
2010.000,1993.000,2003.000
1950.000,2001.000,2014.000
1979.000,1998.000,2002.000
1986.000,1973.000,1981.000
1969.000,1974.000,1963.000
1960.000,1957.000,1990.000
1985.000,1967.000,1939.000
1971.000,1961.000,1955.000
1947.000,1961.000,1973.000
1957.000,1957.000,1940.000
1982.000,1979.000,1985.000
1971.000,1971.000,1958.000
1955.000,1945.000,1956.000
1929.000,1913.000,1914.000
1934.000,1933.000,1942.000
1932.000,1934.000,1919.000
1948.000,1917.000,1910.000
1913.000,1910.000,1863.000
1912.000,1892.000,1892.000
1912.000,1880.000,1893.000
1889.000,1887.000,1929.000
1875.000,1877.000,1900.000
1904.000,1875.000,1867.000
1877.000,1870.000,1903.000
1906.000,1892.000,1879.000
1886.000,1865.000,1890.000
1885.000,1871.000,1901.000
1889.000,1884.000,1854.000
1887.000,1869.000,1858.000
1861.000,1880.000,1874.000
1852.000,1867.000,1864.000
1876.000,1861.000,1866.000
1863.000,1866.000,1881.000
1876.000,1869.000,1885.000
1870.000,1863.000,1858.000
1864.000,1884.000,1862.000
1891.000,1863.000,1881.000
1843.000,1866.000,1863.000
1847.000,1864.000,1858.000
1833.000,1862.000,1871.000
1846.000,1856.000,1867.000
1887.000,1850.000,1849.000
1872.000,1860.000,1883.000
1824.000,1851.000,1845.000
1835.000,1846.000,1853.000
1866.000,1849.000,1848.000
1846.000,1849.000,1873.000
1843.000,1846.000,1858.000
1833.000,1879.000,1830.000
1842.000,1850.000,1857.000
1834.000,1836.000,1841.000
1826.000,1813.000,1842.000
1844.000,1834.000,1796.000
1838.000,1823.000,1797.000
1815.000,1819.000,1864.000
1814.000,1829.000,1802.000
1798.000,1792.000,1814.000
1803.000,1805.000,1801.000
1801.000,1803.000,1779.000
1793.000,1811.000,1787.000
1784.000,1803.000,1773.000
1759.000,1784.000,1781.000
1773.000,1786.000,1767.000
1782.000,1769.000,1757.000
1767.000,1781.000,1758.000
1749.000,1737.000,1726.000
1756.000,1755.000,1756.000
1759.000,1736.000,1752.000
1751.000,1732.000,1720.000
1745.000,1751.000,1722.000
1743.000,1723.000,1745.000
1732.000,1755.000,1721.000
1733.000,1735.000,1749.000
1764.000,1695.000,1725.000
1743.000,1730.000,1697.000
1733.000,1737.000,1690.000
1712.000,1712.000,1736.000
1709.000,1712.000,1722.000
1734.000,1719.000,1714.000
1723.000,1733.000,1720.000
1736.000,1700.000,1713.000
1723.000,1703.000,1711.000
1722.000,1728.000,1729.000
1715.000,1711.000,1714.000
1712.000,1690.000,1688.000
1715.000,1708.000,1723.000
1717.000,1704.000,1684.000
1710.000,1713.000,1708.000
1697.000,1698.000,1694.000
1706.000,1693.000,1688.000
1707.000,1708.000,1680.000
1678.000,1704.000,1697.000
1695.000,1695.000,1676.000
1676.000,1676.000,1678.000
1687.000,1674.000,1706.000
1671.000,1675.000,1705.000
1700.000,1688.000,1682.000
1660.000,1661.000,1672.000
1674.000,1662.000,1682.000
1664.000,1662.000,1660.000
1683.000,1639.000,1677.000
1648.000,1627.000,1675.000
1649.000,1654.000,1658.000
1657.000,1657.000,1655.000
1656.000,1639.000,1639.000
1631.000,1627.000,1631.000
1622.000,1639.000,1634.000
1625.000,1622.000,1631.000
1625.000,1620.000,1637.000
1604.000,1616.000,1600.000
