Focus Mode,Read Mode,Exposure Time (sec),Number of Frames,Start Y,End Y,Date,Time,Position (microns)
Single Acquisition,Spectrum,20.000000,3,105,125,2/11/2021,5:17:01 PM,0.000000,0.000000,200.010000,

1260.000,1264.000,1264.000
1267.000,1264.000,1271.000
1267.000,1266.000,1270.000
1270.000,1265.000,1260.000
1267.000,1265.000,1264.000
1268.000,1266.000,1267.000
1261.000,1264.000,1255.000
1263.000,1269.000,1269.000
1267.000,1269.000,1268.000
1254.000,1265.000,1273.000
1267.000,1270.000,1264.000
1275.000,1267.000,1267.000
1269.000,1269.000,1271.000
1263.000,1271.000,1267.000
1270.000,1264.000,1272.000
1273.000,1267.000,1275.000
1265.000,1280.000,1266.000
1272.000,1272.000,1275.000
1273.000,1275.000,1287.000
1276.000,1267.000,1283.000
1271.000,1283.000,1285.000
1273.000,1279.000,1283.000
1283.000,1279.000,1274.000
1283.000,1284.000,1287.000
1285.000,1283.000,1284.000
1283.000,1286.000,1288.000
1286.000,1274.000,1287.000
1292.000,1291.000,1294.000
1288.000,1289.000,1291.000
1292.000,1287.000,1296.000
1290.000,1296.000,1294.000
1302.000,1292.000,1298.000
1296.000,1306.000,1295.000
1295.000,1303.000,1313.000
1312.000,1295.000,1297.000
1307.000,1309.000,1304.000
1314.000,1301.000,1314.000
1314.000,1312.000,1315.000
1317.000,1322.000,1322.000
1313.000,1319.000,1322.000
1316.000,1317.000,1323.000
1316.000,1328.000,1315.000
1322.000,1324.000,1337.000
1338.000,1330.000,1330.000
1336.000,1341.000,1334.000
1352.000,1333.000,1349.000
1343.000,1343.000,1352.000
1341.000,1351.000,1349.000
1344.000,1351.000,1354.000
1353.000,1356.000,1351.000
1363.000,1372.000,1378.000
1370.000,1369.000,1369.000
1374.000,1378.000,1383.000
1380.000,1384.000,1364.000
1392.000,1379.000,1399.000
1396.000,1397.000,1403.000
1408.000,1404.000,1413.000
1405.000,1402.000,1410.000
1422.000,1411.000,1422.000
1407.000,1413.000,1425.000
1403.000,1408.000,1410.000
1409.000,1409.000,1426.000
1423.000,1429.000,1416.000
1427.000,1429.000,1413.000
1417.000,1431.000,1425.000
1416.000,1435.000,1429.000
1433.000,1427.000,1427.000
1441.000,1446.000,1439.000
1455.000,1454.000,1462.000
1468.000,1481.000,1453.000
1478.000,1485.000,1484.000
1490.000,1487.000,1500.000
1508.000,1515.000,1502.000
1512.000,1507.000,1511.000
1529.000,1523.000,1541.000
1558.000,1561.000,1570.000
1550.000,1564.000,1569.000
1567.000,1578.000,1577.000
1591.000,1604.000,1586.000
1591.000,1596.000,1601.000
1602.000,1630.000,1615.000
1599.000,1619.000,1610.000
1631.000,1618.000,1634.000
1637.000,1641.000,1640.000
1646.000,1654.000,1637.000
1633.000,1661.000,1644.000
1677.000,1658.000,1676.000
1701.000,1678.000,1664.000
1649.000,1697.000,1696.000
1692.000,1691.000,1702.000
1705.000,1709.000,1729.000
1724.000,1720.000,1728.000
1727.000,1743.000,1746.000
1789.000,1775.000,1773.000
1774.000,1795.000,1782.000
1804.000,1811.000,1821.000
1859.000,1862.000,1864.000
1926.000,1925.000,1915.000
1950.000,1962.000,1948.000
2007.000,2030.000,2009.000
2042.000,2098.000,2094.000
2149.000,2194.000,2191.000
2212.000,2262.000,2244.000
2320.000,2318.000,2344.000
2365.000,2394.000,2350.000
2405.000,2476.000,2455.000
2446.000,2462.000,2461.000
2452.000,2486.000,2458.000
2515.000,2542.000,2488.000
2489.000,2549.000,2517.000
2534.000,2592.000,2533.000
2540.000,2638.000,2611.000
2535.000,2604.000,2631.000
2600.000,2590.000,2621.000
2613.000,2648.000,2675.000
2717.000,2731.000,2714.000
2803.000,2832.000,2810.000
2915.000,2944.000,2991.000
3076.000,3100.000,3220.000
3375.000,3391.000,3514.000
3880.000,3821.000,4029.000
4745.000,4654.000,5123.000
6760.000,6461.000,7719.000
12342.000,11898.000,15468.000
30851.000,29323.000,65535.000
61755.000,61819.000,61894.000
62218.000,62217.000,62197.000
62132.000,62132.000,62103.000
62083.000,62080.000,62107.000
62088.000,62090.000,62095.000
62077.000,62079.000,62067.000
62058.000,62053.000,62063.000
62060.000,62064.000,62066.000
62061.000,62061.000,62063.000
62050.000,62050.000,62057.000
62050.000,62048.000,62060.000
62049.000,62054.000,62055.000
62055.000,62052.000,62052.000
62044.000,62050.000,62049.000
62042.000,62048.000,62049.000
62045.000,62052.000,62050.000
62045.000,62049.000,62052.000
62044.000,62044.000,62045.000
62042.000,62044.000,62050.000
62042.000,62048.000,62048.000
62042.000,62045.000,62049.000
62042.000,62042.000,62045.000
62044.000,62045.000,62046.000
62045.000,62045.000,62043.000
62044.000,62049.000,62045.000
62043.000,62048.000,62046.000
62048.000,62045.000,62048.000
62047.000,62039.000,62040.000
62045.000,62041.000,62045.000
62047.000,62045.000,62050.000
62046.000,62043.000,62046.000
62042.000,62042.000,62049.000
62044.000,62048.000,62042.000
62046.000,62041.000,62044.000
62039.000,62042.000,62044.000
62047.000,62040.000,62045.000
62046.000,62045.000,62046.000
62045.000,62042.000,62048.000
62034.000,62043.000,62040.000
62043.000,62047.000,62045.000
62041.000,62045.000,62048.000
62041.000,62042.000,62044.000
62040.000,62041.000,62047.000
62046.000,62047.000,62048.000
62042.000,62042.000,62044.000
62045.000,62039.000,62040.000
62049.000,62045.000,62049.000
62048.000,62042.000,62048.000
62046.000,62051.000,62052.000
62049.000,62062.000,62064.000
62071.000,62074.000,62078.000
62071.000,60940.000,48107.000
1767.000,1670.000,1644.000
1559.000,1564.000,1567.000
1543.000,1539.000,1531.000
1544.000,1532.000,1517.000
1535.000,1507.000,1520.000
1505.000,1490.000,1502.000
1500.000,1502.000,1505.000
1471.000,1506.000,1492.000
1482.000,1481.000,1471.000
1480.000,1470.000,1462.000
1458.000,1457.000,1469.000
1457.000,1454.000,1456.000
1437.000,1450.000,1432.000
1433.000,1445.000,1436.000
1440.000,1444.000,1427.000
1427.000,1431.000,1429.000
1421.000,1427.000,1420.000
1411.000,1427.000,1419.000
1407.000,1430.000,1413.000
1405.000,1416.000,1420.000
1402.000,1414.000,1410.000
1404.000,1400.000,1411.000
1402.000,1405.000,1397.000
1409.000,1408.000,1399.000
1390.000,1403.000,1396.000
1399.000,1398.000,1390.000
1385.000,1383.000,1395.000
1386.000,1390.000,1386.000
1398.000,1394.000,1391.000
1382.000,1384.000,1384.000
1393.000,1369.000,1370.000
1376.000,1379.000,1370.000
1362.000,1372.000,1370.000
1382.000,1367.000,1358.000
1360.000,1375.000,1368.000
1368.000,1380.000,1363.000
1356.000,1364.000,1353.000
1362.000,1357.000,1349.000
1362.000,1360.000,1355.000
1353.000,1352.000,1349.000
1353.000,1347.000,1343.000
1348.000,1345.000,1345.000
1344.000,1345.000,1342.000
1351.000,1337.000,1338.000
1339.000,1345.000,1338.000
1345.000,1331.000,1341.000
1337.000,1346.000,1345.000
1331.000,1347.000,1327.000
1330.000,1333.000,1325.000
1328.000,1327.000,1342.000
1326.000,1327.000,1323.000
1333.000,1331.000,1324.000
1341.000,1339.000,1318.000
1335.000,1329.000,1331.000
1327.000,1341.000,1335.000
1329.000,1326.000,1331.000
1335.000,1326.000,1333.000
1333.000,1331.000,1322.000
1317.000,1326.000,1325.000
1318.000,1318.000,1324.000
1312.000,1317.000,1318.000
1323.000,1323.000,1325.000
1318.000,1311.000,1324.000
1313.000,1323.000,1320.000
1314.000,1319.000,1308.000
1316.000,1306.000,1319.000
1328.000,1312.000,1313.000
1307.000,1309.000,1312.000
1311.000,1285.000,1316.000
1314.000,1313.000,1309.000
1308.000,1306.000,1303.000
1310.000,1315.000,1299.000
1313.000,1307.000,1311.000
1296.000,1300.000,1295.000
1309.000,1303.000,1311.000
1311.000,1305.000,1292.000
1307.000,1302.000,1309.000
1301.000,1302.000,1292.000
1308.000,1295.000,1303.000
1297.000,1295.000,1304.000
1298.000,1307.000,1304.000
1299.000,1292.000,1305.000
1295.000,1299.000,1304.000
1307.000,1299.000,1307.000
1289.000,1301.000,1299.000
1298.000,1310.000,1307.000
1306.000,1300.000,1305.000
1305.000,1296.000,1300.000
1292.000,1300.000,1294.000
1291.000,1298.000,1292.000
1302.000,1304.000,1298.000
1306.000,1302.000,1297.000
1293.000,1299.000,1300.000
1301.000,1300.000,1305.000
1305.000,1294.000,1303.000
1298.000,1308.000,1298.000
1300.000,1301.000,1302.000
1302.000,1298.000,1294.000
1307.000,1297.000,1297.000
1303.000,1290.000,1300.000
1305.000,1307.000,1308.000
1305.000,1307.000,1304.000
1301.000,1305.000,1319.000
1306.000,1310.000,1303.000
1320.000,1313.000,1309.000
1314.000,1320.000,1316.000
1314.000,1319.000,1315.000
1326.000,1315.000,1326.000
1335.000,1317.000,1315.000
1351.000,1334.000,1324.000
1363.000,1329.000,1341.000
1344.000,1348.000,1348.000
1382.000,1360.000,1348.000
1386.000,1390.000,1362.000
1399.000,1380.000,1365.000
1412.000,1392.000,1395.000
1443.000,1416.000,1413.000
1441.000,1434.000,1435.000
1478.000,1454.000,1456.000
1512.000,1483.000,1471.000
1554.000,1511.000,1499.000
1582.000,1566.000,1550.000
1636.000,1592.000,1597.000
1678.000,1670.000,1634.000
1754.000,1731.000,1668.000
1867.000,1789.000,1772.000
1982.000,1863.000,1867.000
2073.000,1984.000,1979.000
2225.000,2129.000,2064.000
2328.000,2252.000,2229.000
2579.000,2419.000,2406.000
2788.000,2661.000,2595.000
3078.000,2881.000,2814.000
3386.000,3145.000,3100.000
3746.000,3494.000,3423.000
4198.000,3862.000,3713.000
4674.000,4265.000,4216.000
5296.000,4746.000,4594.000
5844.000,5325.000,5133.000
6413.000,5848.000,5661.000
7134.000,6463.000,6250.000
7842.000,7130.000,6879.000
8621.000,7802.000,7501.000
9257.000,8431.000,8174.000
10066.000,8989.000,8759.000
10801.000,9660.000,9223.000
11329.000,10233.000,9945.000
11921.000,10698.000,10375.000
12368.000,11232.000,10573.000
12851.000,11571.000,11106.000
13275.000,11858.000,11246.000
13407.000,11957.000,11497.000
13591.000,12261.000,11732.000
13787.000,12381.000,11738.000
13761.000,12417.000,11847.000
13862.000,12376.000,11834.000
13921.000,12484.000,12011.000
14212.000,12524.000,11997.000
13989.000,12626.000,12089.000
14028.000,12442.000,11876.000
13927.000,12560.000,12057.000
14039.000,12585.000,12037.000
14029.000,12460.000,11999.000
13962.000,12561.000,12109.000
13970.000,12557.000,12012.000
13972.000,12406.000,11983.000
13973.000,12556.000,12066.000
14094.000,12493.000,12033.000
14091.000,12588.000,12026.000
14077.000,12628.000,12249.000
14152.000,12708.000,12010.000
14127.000,12742.000,12101.000
14234.000,12749.000,12108.000
14119.000,12601.000,12164.000
13991.000,12716.000,12112.000
14130.000,12636.000,12034.000
14110.000,12696.000,12061.000
14383.000,12702.000,12261.000
14196.000,12787.000,12165.000
14269.000,12862.000,12183.000
14319.000,12749.000,12234.000
14289.000,12832.000,12208.000
14364.000,12720.000,12262.000
14367.000,12814.000,12230.000
14404.000,12842.000,12259.000
14245.000,12833.000,12225.000
14306.000,12857.000,12288.000
14347.000,12788.000,12354.000
14383.000,12867.000,12215.000
14268.000,12912.000,12299.000
14310.000,12873.000,12363.000
14343.000,12827.000,12309.000
14363.000,12832.000,12220.000
14541.000,12880.000,12391.000
14423.000,12866.000,12370.000
14485.000,12945.000,12346.000
14515.000,12898.000,12337.000
14433.000,12981.000,12461.000
14508.000,12925.000,12457.000
14607.000,13068.000,12409.000
14697.000,13122.000,12540.000
14657.000,13126.000,12482.000
14765.000,13258.000,12657.000
14868.000,13153.000,12595.000
14738.000,13163.000,12731.000
14961.000,13198.000,12644.000
14857.000,13345.000,12628.000
14961.000,13381.000,12715.000
15005.000,13382.000,12872.000
15017.000,13329.000,12839.000
15000.000,13283.000,12762.000
15080.000,13470.000,12791.000
14872.000,13283.000,12794.000
15035.000,13479.000,12821.000
15127.000,13263.000,12832.000
15043.000,13548.000,12888.000
15045.000,13446.000,12849.000
15136.000,13594.000,12904.000
15138.000,13552.000,12970.000
15196.000,13536.000,12984.000
15427.000,13673.000,12974.000
15195.000,13635.000,13131.000
15264.000,13563.000,13103.000
15400.000,13795.000,12988.000
15253.000,13650.000,12958.000
15226.000,13826.000,12991.000
15225.000,13708.000,13135.000
15269.000,13580.000,12969.000
15170.000,13559.000,13053.000
15320.000,13560.000,12960.000
15211.000,13594.000,12910.000
15386.000,13583.000,13050.000
15296.000,13636.000,13150.000
15426.000,13720.000,13109.000
15412.000,13671.000,13065.000
15380.000,13621.000,12991.000
15274.000,13747.000,13073.000
15313.000,13640.000,13106.000
15398.000,13706.000,13074.000
15324.000,13733.000,13059.000
15381.000,13697.000,13125.000
15415.000,13675.000,13147.000
15404.000,13787.000,13135.000
15434.000,13670.000,13085.000
15447.000,13801.000,13175.000
15519.000,13828.000,13193.000
15447.000,13655.000,13172.000
15579.000,13826.000,13207.000
15483.000,13878.000,13306.000
15671.000,13914.000,13236.000
15654.000,13924.000,13383.000
15566.000,13903.000,13457.000
15624.000,13867.000,13461.000
15741.000,13922.000,13353.000
15815.000,14216.000,13313.000
15792.000,14089.000,13448.000
15717.000,13991.000,13423.000
15972.000,14120.000,13443.000
15844.000,14201.000,13437.000
15848.000,14031.000,13536.000
15863.000,14046.000,13641.000
15866.000,14117.000,13502.000
15832.000,14072.000,13490.000
15881.000,14199.000,13521.000
15751.000,14199.000,13504.000
15966.000,14177.000,13591.000
15763.000,14092.000,13625.000
15884.000,14159.000,13525.000
15876.000,14122.000,13548.000
15890.000,14314.000,13812.000
16001.000,14324.000,13652.000
15888.000,14277.000,13585.000
16081.000,14217.000,13714.000
16013.000,14321.000,13609.000
15989.000,14243.000,13744.000
16183.000,14174.000,13607.000
16093.000,14311.000,13660.000
16074.000,14323.000,13543.000
16089.000,14261.000,13629.000
16041.000,14196.000,13696.000
15913.000,14272.000,13614.000
16003.000,14335.000,13725.000
16067.000,14323.000,13707.000
16000.000,14222.000,13654.000
16122.000,14367.000,13661.000
16067.000,14303.000,13706.000
15966.000,14332.000,13738.000
16058.000,14334.000,13718.000
16090.000,14372.000,13685.000
15960.000,14367.000,13754.000
16002.000,14318.000,13647.000
16214.000,14467.000,13795.000
16145.000,14336.000,13669.000
15945.000,14363.000,13644.000
16109.000,14379.000,13811.000
16052.000,14417.000,13732.000
16185.000,14466.000,13882.000
16082.000,14500.000,13751.000
16162.000,14453.000,13842.000
16096.000,14395.000,13758.000
16308.000,14532.000,13821.000
16121.000,14347.000,13852.000
16177.000,14504.000,13773.000
16310.000,14423.000,13853.000
16053.000,14517.000,13931.000
16150.000,14482.000,13733.000
16298.000,14450.000,13715.000
16190.000,14462.000,13848.000
16341.000,14420.000,13767.000
16191.000,14416.000,13819.000
16256.000,14442.000,13858.000
16308.000,14540.000,13913.000
16349.000,14639.000,13941.000
16393.000,14502.000,13943.000
16340.000,14453.000,13818.000
16366.000,14582.000,13988.000
16465.000,14617.000,13924.000
16330.000,14634.000,13918.000
16462.000,14657.000,14094.000
16664.000,14714.000,14096.000
16524.000,14625.000,14068.000
16460.000,14647.000,14109.000
16484.000,14739.000,14045.000
16502.000,14768.000,14221.000
16433.000,14730.000,14056.000
16556.000,14687.000,13924.000
16673.000,14833.000,14130.000
16548.000,14802.000,14216.000
16522.000,14843.000,14110.000
16426.000,14785.000,14143.000
16667.000,14770.000,14029.000
16575.000,14701.000,14002.000
16540.000,14791.000,14068.000
16277.000,14629.000,14005.000
16380.000,14677.000,14083.000
16318.000,14614.000,13922.000
16427.000,14580.000,13897.000
16398.000,14609.000,13942.000
16449.000,14624.000,13743.000
16352.000,14546.000,13784.000
16221.000,14460.000,13844.000
16226.000,14357.000,13766.000
16171.000,14277.000,13667.000
16147.000,14358.000,13677.000
16222.000,14348.000,13748.000
16103.000,14195.000,13666.000
16174.000,14383.000,13686.000
16047.000,14301.000,13680.000
16138.000,14270.000,13560.000
15979.000,14311.000,13681.000
16156.000,14346.000,13685.000
16296.000,14314.000,13721.000
16251.000,14313.000,13712.000
16179.000,14402.000,13707.000
16164.000,14353.000,13627.000
16258.000,14350.000,13734.000
16128.000,14405.000,13770.000
15964.000,14275.000,13666.000
16103.000,14264.000,13659.000
16178.000,14316.000,13623.000
16148.000,14223.000,13581.000
15978.000,14344.000,13622.000
15977.000,14186.000,13703.000
15946.000,14211.000,13668.000
16067.000,14245.000,13472.000
16026.000,14155.000,13617.000
15979.000,14183.000,13540.000
16015.000,14210.000,13510.000
16006.000,14146.000,13553.000
16077.000,14139.000,13467.000
16145.000,14190.000,13611.000
16062.000,14180.000,13498.000
15998.000,14218.000,13629.000
16172.000,14212.000,13630.000
16192.000,14355.000,13673.000
16199.000,14292.000,13610.000
16178.000,14381.000,13719.000
16162.000,14260.000,13728.000
16082.000,14528.000,13743.000
16183.000,14403.000,13679.000
16212.000,14319.000,13742.000
16343.000,14408.000,13676.000
16188.000,14409.000,13813.000
16220.000,14446.000,13805.000
16258.000,14349.000,13889.000
16454.000,14484.000,13819.000
16382.000,14368.000,13724.000
16216.000,14409.000,13728.000
16430.000,14480.000,13777.000
16323.000,14480.000,13854.000
16346.000,14536.000,13940.000
16343.000,14532.000,13860.000
16463.000,14767.000,13953.000
16548.000,14480.000,13905.000
16417.000,14775.000,13866.000
16430.000,14385.000,13828.000
16283.000,14617.000,13858.000
16249.000,14462.000,13850.000
16290.000,14540.000,13736.000
16361.000,14467.000,13863.000
16353.000,14514.000,13934.000
16453.000,14456.000,13809.000
16274.000,14521.000,13709.000
16317.000,14396.000,13627.000
16221.000,14427.000,13656.000
16275.000,14397.000,13711.000
16312.000,14521.000,13805.000
16294.000,14542.000,13744.000
16479.000,14459.000,13897.000
16498.000,14502.000,13945.000
16505.000,14563.000,13951.000
16379.000,14563.000,13921.000
16514.000,14560.000,14023.000
16531.000,14645.000,13946.000
16513.000,14524.000,13935.000
16506.000,14447.000,13851.000
16298.000,14573.000,13976.000
16461.000,14511.000,13821.000
16441.000,14534.000,13806.000
16164.000,14512.000,13728.000
16326.000,14422.000,13655.000
16128.000,14281.000,13662.000
16131.000,14326.000,13633.000
16179.000,14433.000,13586.000
16321.000,14413.000,13747.000
16279.000,14451.000,13736.000
16363.000,14354.000,13663.000
16200.000,14319.000,13615.000
16323.000,14234.000,13662.000
16147.000,14278.000,13772.000
16206.000,14376.000,13583.000
16258.000,14287.000,13535.000
16126.000,14265.000,13690.000
16199.000,14329.000,13647.000
16235.000,14266.000,13622.000
16135.000,14256.000,13491.000
16153.000,14135.000,13612.000
15984.000,14209.000,13481.000
16073.000,14246.000,13595.000
16145.000,14201.000,13536.000
16002.000,14288.000,13536.000
16186.000,14259.000,13707.000
16199.000,14206.000,13640.000
16123.000,14322.000,13661.000
16156.000,14210.000,13611.000
16152.000,14265.000,13716.000
16027.000,14449.000,13578.000
16235.000,14416.000,13655.000
16303.000,14331.000,13691.000
16278.000,14413.000,13678.000
16146.000,14395.000,13662.000
16200.000,14204.000,13595.000
16020.000,14251.000,13546.000
16089.000,14329.000,13625.000
15953.000,14224.000,13498.000
16085.000,14299.000,13552.000
16087.000,14268.000,13529.000
16002.000,14250.000,13607.000
16006.000,14084.000,13409.000
16122.000,14252.000,13595.000
16252.000,14161.000,13487.000
16087.000,14217.000,13579.000
16097.000,14208.000,13528.000
16033.000,14320.000,13681.000
16255.000,14283.000,13719.000
16190.000,14305.000,13651.000
16333.000,14332.000,13709.000
16312.000,14359.000,13669.000
16207.000,14441.000,13609.000
16090.000,14346.000,13595.000
16082.000,14214.000,13611.000
16128.000,14195.000,13634.000
16184.000,14228.000,13635.000
16129.000,14327.000,13628.000
16192.000,14434.000,13728.000
16026.000,14433.000,13689.000
16194.000,14299.000,13699.000
16185.000,14261.000,13704.000
16041.000,14330.000,13463.000
16143.000,14321.000,13519.000
16091.000,14295.000,13581.000
16180.000,14300.000,13631.000
16287.000,14238.000,13499.000
16264.000,14313.000,13545.000
16098.000,14192.000,13607.000
16224.000,14337.000,13600.000
16266.000,14392.000,13628.000
16202.000,14191.000,13699.000
16192.000,14443.000,13610.000
16162.000,14333.000,13641.000
15913.000,14308.000,13509.000
16151.000,14331.000,13578.000
16056.000,14331.000,13616.000
16143.000,14223.000,13648.000
16051.000,14272.000,13623.000
15973.000,14318.000,13487.000
16044.000,14198.000,13459.000
16035.000,14243.000,13517.000
16222.000,14255.000,13644.000
16140.000,14209.000,13534.000
16118.000,14298.000,13540.000
16110.000,14285.000,13513.000
16114.000,14298.000,13662.000
16172.000,14410.000,13625.000
16151.000,14250.000,13613.000
16105.000,14220.000,13604.000
16003.000,14184.000,13624.000
16023.000,14270.000,13565.000
16163.000,14151.000,13570.000
16083.000,14202.000,13556.000
16023.000,14233.000,13631.000
16238.000,14291.000,13692.000
16173.000,14220.000,13573.000
16042.000,14324.000,13655.000
16080.000,14245.000,13550.000
16125.000,14201.000,13604.000
16229.000,14166.000,13578.000
16011.000,14237.000,13553.000
15997.000,14277.000,13467.000
16071.000,14306.000,13556.000
15995.000,14279.000,13574.000
15918.000,14121.000,13434.000
16067.000,14228.000,13549.000
16015.000,14162.000,13573.000
16003.000,14376.000,13613.000
15986.000,14206.000,13614.000
16027.000,14259.000,13595.000
16060.000,14141.000,13460.000
16063.000,14158.000,13461.000
15913.000,14144.000,13577.000
16094.000,14230.000,13586.000
16000.000,14253.000,13557.000
15960.000,14156.000,13533.000
16125.000,14245.000,13550.000
16038.000,14274.000,13596.000
16123.000,14242.000,13649.000
16060.000,14276.000,13556.000
16172.000,14150.000,13598.000
16109.000,14153.000,13462.000
15993.000,14242.000,13483.000
15895.000,14150.000,13527.000
16029.000,14094.000,13548.000
16107.000,14099.000,13594.000
16042.000,14158.000,13434.000
15947.000,14139.000,13511.000
15877.000,14161.000,13500.000
15900.000,14128.000,13392.000
16093.000,14217.000,13345.000
15980.000,14096.000,13477.000
15935.000,14214.000,13569.000
16022.000,14255.000,13429.000
16068.000,14145.000,13549.000
15973.000,14184.000,13513.000
15894.000,14171.000,13502.000
15986.000,14247.000,13496.000
15921.000,14241.000,13536.000
16042.000,14122.000,13481.000
16010.000,14051.000,13405.000
15867.000,14017.000,13427.000
15818.000,14023.000,13441.000
15761.000,13909.000,13247.000
15800.000,14077.000,13349.000
15825.000,13984.000,13301.000
15800.000,14004.000,13388.000
15709.000,14055.000,13260.000
15660.000,13882.000,13281.000
15755.000,13963.000,13319.000
15649.000,13880.000,13286.000
15681.000,13908.000,13387.000
15784.000,14040.000,13456.000
15907.000,14053.000,13432.000
15830.000,14080.000,13330.000
15904.000,13956.000,13440.000
15840.000,14231.000,13495.000
15894.000,14118.000,13525.000
15759.000,14091.000,13434.000
15881.000,14109.000,13355.000
15899.000,14068.000,13425.000
15750.000,14048.000,13401.000
15772.000,13929.000,13336.000
15774.000,13940.000,13396.000
15943.000,14036.000,13331.000
15765.000,14002.000,13326.000
15625.000,14004.000,13305.000
15824.000,13950.000,13410.000
15890.000,13939.000,13471.000
15819.000,13955.000,13350.000
15790.000,14018.000,13341.000
15750.000,13860.000,13494.000
15765.000,13915.000,13253.000
15745.000,13933.000,13354.000
15815.000,14040.000,13465.000
15790.000,13923.000,13410.000
15734.000,14018.000,13431.000
15911.000,14153.000,13307.000
15802.000,14085.000,13348.000
15866.000,14113.000,13328.000
15786.000,14131.000,13439.000
15859.000,14009.000,13570.000
15886.000,13982.000,13417.000
15944.000,14139.000,13354.000
15885.000,14153.000,13497.000
15880.000,14192.000,13572.000
15934.000,14078.000,13544.000
15949.000,14020.000,13467.000
15827.000,13960.000,13473.000
16013.000,14076.000,13571.000
15926.000,14152.000,13527.000
16009.000,14268.000,13589.000
16039.000,14110.000,13581.000
16043.000,14066.000,13580.000
16008.000,14011.000,13539.000
15852.000,14144.000,13539.000
15918.000,14107.000,13513.000
15979.000,14139.000,13603.000
15841.000,13949.000,13363.000
15916.000,14071.000,13366.000
15869.000,14041.000,13464.000
15816.000,14225.000,13444.000
15868.000,14168.000,13516.000
15890.000,14043.000,13405.000
15819.000,13927.000,13484.000
15884.000,13972.000,13286.000
15755.000,13977.000,13510.000
15800.000,13899.000,13356.000
15772.000,13988.000,13445.000
15743.000,14030.000,13338.000
15796.000,14047.000,13390.000
15746.000,13959.000,13362.000
15809.000,13967.000,13266.000
15794.000,14078.000,13427.000
15783.000,13954.000,13410.000
15741.000,14126.000,13359.000
15792.000,14033.000,13312.000
15816.000,13843.000,13315.000
15635.000,13861.000,13159.000
15722.000,13868.000,13210.000
15571.000,13850.000,13202.000
15438.000,13884.000,13391.000
15629.000,13815.000,13347.000
15621.000,13775.000,13268.000
15591.000,13788.000,13149.000
15473.000,13770.000,13300.000
15500.000,13835.000,13156.000
15647.000,13834.000,13230.000
15491.000,13822.000,13276.000
15521.000,13639.000,13042.000
15504.000,13728.000,13119.000
15453.000,13744.000,13079.000
15495.000,13637.000,13158.000
15531.000,13700.000,13115.000
15422.000,13660.000,13136.000
15614.000,13760.000,13104.000
15488.000,13616.000,13026.000
15418.000,13638.000,13076.000
15350.000,13656.000,12997.000
15431.000,13650.000,13060.000
15267.000,13607.000,13101.000
15374.000,13699.000,13034.000
15342.000,13514.000,13065.000
15355.000,13670.000,12930.000
15410.000,13576.000,13132.000
15400.000,13694.000,12908.000
15353.000,13632.000,12907.000
15284.000,13585.000,12956.000
15397.000,13607.000,12939.000
15269.000,13628.000,12932.000
15438.000,13649.000,13047.000
15467.000,13715.000,12966.000
15363.000,13587.000,13093.000
15273.000,13559.000,13024.000
15242.000,13574.000,12985.000
15362.000,13695.000,13054.000
15236.000,13570.000,13004.000
15298.000,13512.000,13018.000
15398.000,13646.000,13029.000
15549.000,13723.000,13072.000
15450.000,13769.000,13062.000
15575.000,13595.000,12994.000
15239.000,13691.000,12991.000
15345.000,13699.000,13150.000
15513.000,13722.000,13132.000
15496.000,13684.000,13065.000
15253.000,13645.000,13079.000
15307.000,13639.000,13069.000
15279.000,13749.000,13004.000
15221.000,13583.000,12896.000
15295.000,13534.000,12838.000
15391.000,13585.000,12956.000
15304.000,13555.000,12994.000
15304.000,13572.000,12945.000
15418.000,13631.000,13014.000
15414.000,13669.000,12934.000
15555.000,13581.000,12999.000
15500.000,13590.000,13002.000
15321.000,13613.000,13021.000
15297.000,13721.000,12911.000
15359.000,13548.000,13094.000
15221.000,13714.000,12961.000
15410.000,13779.000,13053.000
15474.000,13634.000,13104.000
15314.000,13622.000,13133.000
15466.000,13607.000,13105.000
15279.000,13603.000,13016.000
15472.000,13619.000,12887.000
15307.000,13519.000,12981.000
15342.000,13517.000,12939.000
15241.000,13471.000,13012.000
15216.000,13577.000,12893.000
15189.000,13488.000,12815.000
15086.000,13326.000,12887.000
15094.000,13359.000,12797.000
15147.000,13375.000,12830.000
15081.000,13414.000,12812.000
15215.000,13386.000,12920.000
14968.000,13422.000,12893.000
14976.000,13399.000,12766.000
15011.000,13312.000,12709.000
15018.000,13360.000,12589.000
14967.000,13209.000,12708.000
14904.000,13347.000,12668.000
14932.000,13255.000,12753.000
14992.000,13263.000,12711.000
14962.000,13223.000,12627.000
14862.000,13262.000,12728.000
14847.000,13181.000,12677.000
14814.000,13236.000,12636.000
14938.000,13231.000,12595.000
14940.000,13184.000,12651.000
14921.000,13221.000,12646.000
14817.000,13172.000,12630.000
14827.000,13145.000,12575.000
14808.000,13259.000,12605.000
14895.000,13189.000,12684.000
14761.000,13136.000,12596.000
14797.000,13056.000,12606.000
14803.000,13428.000,12627.000
14728.000,13071.000,12631.000
14764.000,12999.000,12451.000
14760.000,13071.000,12524.000
14666.000,13075.000,12456.000
14745.000,13044.000,12379.000
14577.000,12997.000,12449.000
14585.000,13009.000,12423.000
14661.000,13049.000,12437.000
14690.000,12888.000,12403.000
14694.000,13011.000,12470.000
14671.000,13069.000,12515.000
14636.000,12904.000,12425.000
14725.000,13011.000,12302.000
14617.000,13026.000,12327.000
14355.000,12831.000,12246.000
14584.000,12924.000,12517.000
14475.000,12913.000,12531.000
14624.000,12827.000,12395.000
14591.000,12926.000,12591.000
14703.000,13113.000,12613.000
14735.000,13074.000,12632.000
14694.000,13240.000,12406.000
14752.000,12967.000,12603.000
14589.000,12958.000,12390.000
14657.000,12926.000,12412.000
14708.000,12895.000,12460.000
14570.000,12900.000,12476.000
14674.000,12917.000,12391.000
14511.000,12759.000,12297.000
14552.000,12739.000,12328.000
14438.000,12897.000,12380.000
14390.000,12874.000,12318.000
14226.000,12843.000,12255.000
14259.000,12714.000,12352.000
14433.000,12782.000,12214.000
14332.000,12690.000,12296.000
14264.000,12669.000,12154.000
14299.000,12757.000,12150.000
14343.000,12768.000,12054.000
14229.000,12706.000,12160.000
14325.000,12832.000,12244.000
14243.000,12682.000,12143.000
14307.000,12748.000,12224.000
14334.000,12704.000,12179.000
14232.000,12784.000,12170.000
14274.000,12690.000,12118.000
14363.000,12691.000,12159.000
14356.000,12734.000,12183.000
14280.000,12671.000,12229.000
14228.000,12767.000,12124.000
14180.000,12607.000,12149.000
14231.000,12643.000,12120.000
14105.000,12626.000,12179.000
14148.000,12587.000,11952.000
14166.000,12614.000,12120.000
14136.000,12493.000,12022.000
14249.000,12643.000,11933.000
14018.000,12462.000,12122.000
14058.000,12402.000,12085.000
14042.000,12590.000,12037.000
13897.000,12465.000,12020.000
13812.000,12453.000,11916.000
13881.000,12267.000,11943.000
13768.000,12492.000,11823.000
13849.000,12474.000,11723.000
13824.000,12210.000,11887.000
13799.000,12371.000,11895.000
13762.000,12336.000,11654.000
13841.000,12145.000,11738.000
13817.000,12283.000,11798.000
13775.000,12345.000,11802.000
13882.000,12296.000,11633.000
13722.000,12275.000,11802.000
13732.000,12258.000,11682.000
13795.000,12339.000,11715.000
13744.000,12160.000,11672.000
13674.000,12110.000,11606.000
13609.000,12168.000,11667.000
13712.000,12129.000,11708.000
13713.000,12259.000,11718.000
13645.000,12175.000,11581.000
13673.000,12274.000,11695.000
13688.000,12164.000,11700.000
13685.000,12137.000,11707.000
13543.000,12083.000,11635.000
13548.000,12052.000,11551.000
13488.000,12039.000,11494.000
13554.000,12005.000,11604.000
13528.000,12076.000,11543.000
13466.000,12030.000,11503.000
13448.000,11884.000,11370.000
13410.000,11910.000,11312.000
13239.000,11936.000,11323.000
13346.000,11892.000,11306.000
13217.000,11836.000,11445.000
13196.000,11774.000,11350.000
13301.000,11762.000,11203.000
13272.000,11819.000,11489.000
13154.000,11856.000,11273.000
13140.000,11751.000,11213.000
13141.000,11680.000,11205.000
13227.000,11743.000,11276.000
13154.000,11778.000,11222.000
13222.000,11759.000,11187.000
13120.000,11765.000,11216.000
13159.000,11837.000,11199.000
13207.000,11729.000,11105.000
13062.000,11638.000,11183.000
13072.000,11675.000,11033.000
12966.000,11635.000,11136.000
13007.000,11629.000,11173.000
13000.000,11559.000,11059.000
13032.000,11495.000,11133.000
12930.000,11649.000,11197.000
12895.000,11548.000,11028.000
12820.000,11535.000,11043.000
12904.000,11537.000,11017.000
12860.000,11469.000,11043.000
12905.000,11522.000,10923.000
12725.000,11344.000,10951.000
12815.000,11513.000,10934.000
12674.000,11372.000,10821.000
12696.000,11199.000,10863.000
12551.000,11357.000,10769.000
12715.000,11300.000,10678.000
12545.000,11200.000,10699.000
12702.000,11277.000,10686.000
12636.000,11110.000,10645.000
12673.000,11193.000,10746.000
12631.000,11105.000,10759.000
12489.000,11153.000,10755.000
12547.000,11190.000,10746.000
12590.000,11194.000,10763.000
12601.000,11233.000,10724.000
12486.000,11182.000,10768.000
12538.000,11247.000,10716.000
12441.000,11169.000,10751.000
12510.000,11079.000,10634.000
12527.000,11087.000,10569.000
12420.000,11108.000,10638.000
12334.000,10992.000,10569.000
12336.000,10934.000,10594.000
12231.000,10889.000,10556.000
12225.000,11085.000,10578.000
12303.000,10965.000,10565.000
12086.000,10871.000,10442.000
12161.000,10905.000,10441.000
12023.000,10798.000,10355.000
12117.000,10733.000,10320.000
11957.000,10668.000,10279.000
11957.000,10661.000,10370.000
11901.000,10697.000,10232.000
11862.000,10659.000,10247.000
11841.000,10654.000,10183.000
11814.000,10571.000,10083.000
11801.000,10510.000,10122.000
11783.000,10560.000,10023.000
11692.000,10557.000,10010.000
11712.000,10493.000,10039.000
11643.000,10570.000,10026.000
11789.000,10460.000,10093.000
11679.000,10401.000,10044.000
11819.000,10573.000,10067.000
11792.000,10503.000,10201.000
11553.000,10488.000,10163.000
11573.000,10377.000,10205.000
11778.000,10340.000,10089.000
11703.000,10510.000,10183.000
11628.000,10373.000,10145.000
11611.000,10433.000,10080.000
11558.000,10307.000,9990.000
11390.000,10477.000,9904.000
11331.000,10245.000,9838.000
11485.000,10175.000,9942.000
11444.000,10179.000,9905.000
11386.000,10232.000,9777.000
11135.000,10188.000,9712.000
11131.000,10110.000,9841.000
11220.000,10106.000,9695.000
11260.000,10086.000,9617.000
11241.000,9971.000,9643.000
11114.000,10028.000,9644.000
11164.000,9981.000,9665.000
11226.000,10075.000,9739.000
11157.000,9927.000,9589.000
11303.000,9928.000,9647.000
10989.000,9923.000,9628.000
11234.000,10080.000,9713.000
11151.000,10048.000,9548.000
11212.000,10004.000,9622.000
11171.000,10073.000,9666.000
11210.000,10021.000,9710.000
11101.000,9920.000,9665.000
11123.000,10011.000,9689.000
11110.000,9989.000,9701.000
11149.000,10002.000,9600.000
11028.000,9868.000,9510.000
11030.000,9817.000,9616.000
11045.000,9888.000,9650.000
11064.000,9831.000,9535.000
10955.000,9830.000,9431.000
10909.000,9809.000,9594.000
10874.000,9817.000,9596.000
10891.000,9975.000,9505.000
11011.000,9883.000,9654.000
10988.000,9742.000,9547.000
10982.000,9831.000,9638.000
10971.000,9891.000,9563.000
11106.000,10000.000,9565.000
10995.000,9910.000,9563.000
10995.000,9928.000,9585.000
10952.000,9825.000,9505.000
10957.000,9732.000,9535.000
10974.000,9850.000,9435.000
10948.000,9830.000,9531.000
10879.000,9673.000,9436.000
10779.000,9706.000,9402.000
10803.000,9708.000,9380.000
10806.000,9698.000,9387.000
10766.000,9620.000,9310.000
10752.000,9654.000,9172.000
10736.000,9604.000,9298.000
10708.000,9601.000,9253.000
10769.000,9569.000,9250.000
10896.000,9670.000,9306.000
10822.000,9825.000,9258.000
10803.000,9716.000,9346.000
10804.000,9631.000,9362.000
10870.000,9709.000,9360.000
10837.000,9675.000,9359.000
10675.000,9770.000,9348.000
10724.000,9639.000,9225.000
10669.000,9627.000,9296.000
10649.000,9732.000,9158.000
10705.000,9585.000,9119.000
10656.000,9650.000,9261.000
10660.000,9548.000,9185.000
10639.000,9589.000,9169.000
10796.000,9627.000,9290.000
10794.000,9617.000,9328.000
10763.000,9704.000,9332.000
10889.000,9704.000,9215.000
10831.000,9719.000,9282.000
10792.000,9555.000,9220.000
10822.000,9590.000,9182.000
10615.000,9619.000,9166.000
10626.000,9542.000,9177.000
10573.000,9457.000,9148.000
10579.000,9447.000,9175.000
10390.000,9340.000,9099.000
10499.000,9429.000,9206.000
10574.000,9433.000,9035.000
10452.000,9419.000,9150.000
10536.000,9506.000,9029.000
10487.000,9491.000,9159.000
10627.000,9554.000,9220.000
10568.000,9628.000,9244.000
10672.000,9627.000,9207.000
10660.000,9519.000,9202.000
10614.000,9588.000,9182.000
10526.000,9546.000,9144.000
10484.000,9566.000,9121.000
10552.000,9564.000,9161.000
10474.000,9464.000,9050.000
10568.000,9488.000,9108.000
10444.000,9384.000,9076.000
10478.000,9396.000,9069.000
10446.000,9367.000,9002.000
10394.000,9324.000,9074.000
10503.000,9400.000,9070.000
10477.000,9596.000,9082.000
10457.000,9505.000,9240.000
10584.000,9554.000,9247.000
10639.000,9658.000,9255.000
10642.000,9563.000,9278.000
10686.000,9615.000,9328.000
10762.000,9595.000,9291.000
10720.000,9581.000,9301.000
10582.000,9488.000,9184.000
10491.000,9460.000,9094.000
10532.000,9364.000,9158.000
10466.000,9370.000,9140.000
10453.000,9429.000,9089.000
10362.000,9281.000,9065.000
10368.000,9265.000,8972.000
10448.000,9404.000,9040.000
10355.000,9412.000,9142.000
10445.000,9359.000,8993.000
10479.000,9464.000,9138.000
10494.000,9467.000,9095.000
10561.000,9532.000,9155.000
10439.000,9479.000,9191.000
10543.000,9522.000,9135.000
10509.000,9502.000,9088.000
10524.000,9416.000,9137.000
10535.000,9435.000,9166.000
10427.000,9498.000,9073.000
10473.000,9483.000,9094.000
10495.000,9349.000,9090.000
10249.000,9421.000,9040.000
10365.000,9361.000,9064.000
10361.000,9367.000,9016.000
10339.000,9393.000,8940.000
10286.000,9266.000,8947.000
10350.000,9295.000,8909.000
10347.000,9327.000,8986.000
10319.000,9243.000,8920.000
10364.000,9316.000,9039.000
10324.000,9296.000,9027.000
10461.000,9396.000,9132.000
10357.000,9379.000,9023.000
10444.000,9339.000,9037.000
10444.000,9503.000,9083.000
10429.000,9325.000,8958.000
10589.000,9400.000,9120.000
10442.000,9376.000,9151.000
10478.000,9475.000,9086.000
10489.000,9483.000,9059.000
10385.000,9534.000,9134.000
10450.000,9455.000,9031.000
10308.000,9421.000,9049.000
10436.000,9361.000,9045.000
10290.000,9395.000,8955.000
10335.000,9273.000,8951.000
10321.000,9332.000,9063.000
10342.000,9363.000,8936.000
10271.000,9192.000,8832.000
10214.000,9270.000,8881.000
10247.000,9228.000,8873.000
10208.000,9147.000,8855.000
10231.000,9084.000,8776.000
10140.000,9094.000,8823.000
10160.000,9111.000,8803.000
10117.000,9335.000,8852.000
10116.000,9208.000,8832.000
10235.000,9210.000,8910.000
10121.000,9164.000,8842.000
10237.000,9248.000,8975.000
10287.000,9193.000,8850.000
10231.000,9180.000,8925.000
10252.000,9213.000,8944.000
10105.000,9284.000,8828.000
10215.000,9225.000,8909.000
10228.000,9184.000,8823.000
10127.000,9125.000,8792.000
10044.000,9144.000,8777.000
10167.000,9141.000,8778.000
10125.000,9140.000,8834.000
10087.000,9057.000,8830.000
10087.000,9078.000,8810.000
9845.000,9085.000,8680.000
9879.000,9056.000,8632.000
9879.000,8836.000,8602.000
9901.000,8926.000,8606.000
9787.000,8911.000,8576.000
9933.000,8872.000,8570.000
9893.000,8912.000,8595.000
9891.000,8881.000,8534.000
9828.000,8783.000,8536.000
9904.000,8846.000,8551.000
9790.000,8888.000,8493.000
9846.000,8820.000,8487.000
9857.000,8900.000,8465.000
9869.000,8844.000,8526.000
9784.000,8955.000,8434.000
9841.000,8836.000,8475.000
9870.000,8891.000,8529.000
9715.000,8836.000,8491.000
9812.000,8943.000,8502.000
9703.000,8860.000,8543.000
9772.000,8791.000,8560.000
9689.000,8809.000,8410.000
9691.000,8697.000,8516.000
9691.000,8775.000,8495.000
9725.000,8709.000,8389.000
9572.000,8801.000,8432.000
9733.000,8695.000,8489.000
9648.000,8799.000,8360.000
9597.000,8632.000,8293.000
9580.000,8691.000,8319.000
9658.000,8622.000,8364.000
9587.000,8650.000,8325.000
9532.000,8619.000,8308.000
9446.000,8582.000,8269.000
9384.000,8587.000,8087.000
9411.000,8500.000,8184.000
9510.000,8526.000,8140.000
9411.000,8568.000,8258.000
9561.000,8549.000,8252.000
9413.000,8434.000,8102.000
9506.000,8454.000,8186.000
9449.000,8440.000,8218.000
9254.000,8441.000,8162.000
9248.000,8425.000,8036.000
9191.000,8400.000,8070.000
9306.000,8394.000,8075.000
9319.000,8357.000,8117.000
9253.000,8429.000,8138.000
9324.000,8397.000,8035.000
9437.000,8448.000,8208.000
9316.000,8464.000,8055.000
9366.000,8552.000,8153.000
9331.000,8537.000,8176.000
9328.000,8392.000,8132.000
9260.000,8393.000,8197.000
9239.000,8488.000,8179.000
9255.000,8431.000,8063.000
9248.000,8355.000,8073.000
9350.000,8456.000,8162.000
9300.000,8362.000,8030.000
9250.000,8390.000,8077.000
9287.000,8383.000,8099.000
9168.000,8232.000,8054.000
9198.000,8399.000,7965.000
9278.000,8317.000,7940.000
9073.000,8383.000,7997.000
9167.000,8216.000,7980.000
9096.000,8299.000,7854.000
9100.000,8179.000,7892.000
9019.000,8096.000,7895.000
8932.000,8228.000,7889.000
8900.000,8167.000,7866.000
8995.000,8100.000,7833.000
8934.000,8129.000,7854.000
8987.000,7997.000,7691.000
8889.000,8169.000,7739.000
8783.000,7919.000,7707.000
8856.000,8049.000,7751.000
8837.000,7912.000,7757.000
8883.000,7945.000,7674.000
8867.000,7974.000,7676.000
8839.000,7934.000,7721.000
8786.000,8035.000,7679.000
8791.000,7969.000,7620.000
8871.000,7993.000,7719.000
8841.000,7883.000,7676.000
8834.000,8087.000,7663.000
8791.000,8007.000,7709.000
8868.000,8034.000,7784.000
8898.000,8051.000,7842.000
8855.000,7932.000,7750.000
8841.000,7954.000,7874.000
8947.000,8085.000,7750.000
8831.000,7943.000,7770.000
8900.000,8036.000,7820.000
8835.000,7985.000,7700.000
8795.000,7994.000,7710.000
8807.000,8020.000,7781.000
8893.000,8049.000,7726.000
8742.000,7995.000,7740.000
8762.000,7994.000,7683.000
8751.000,8015.000,7715.000
8694.000,7975.000,7702.000
8675.000,7977.000,7683.000
8761.000,7824.000,7594.000
8645.000,7812.000,7541.000
8651.000,7872.000,7576.000
8669.000,7865.000,7645.000
8731.000,7773.000,7511.000
8667.000,7870.000,7541.000
8600.000,7700.000,7490.000
8418.000,7704.000,7376.000
8469.000,7790.000,7484.000
8410.000,7774.000,7521.000
8368.000,7586.000,7432.000
8434.000,7541.000,7315.000
8313.000,7579.000,7426.000
8414.000,7649.000,7274.000
8231.000,7496.000,7246.000
8153.000,7511.000,7308.000
8293.000,7472.000,7229.000
8142.000,7513.000,7260.000
8252.000,7449.000,7183.000
8174.000,7426.000,7160.000
8160.000,7384.000,7131.000
8133.000,7449.000,7132.000
8174.000,7393.000,7142.000
8061.000,7336.000,7143.000
8038.000,7347.000,7118.000
8067.000,7404.000,7019.000
8117.000,7405.000,7126.000
8141.000,7351.000,7151.000
8067.000,7350.000,7104.000
8010.000,7387.000,7135.000
7992.000,7298.000,7108.000
8032.000,7328.000,7180.000
8017.000,7342.000,6998.000
8027.000,7311.000,7038.000
8116.000,7337.000,7029.000
8040.000,7336.000,7043.000
7970.000,7213.000,6945.000
7985.000,7238.000,6979.000
7948.000,7210.000,6989.000
7899.000,7163.000,6875.000
7873.000,7238.000,6946.000
7846.000,7063.000,6925.000
7756.000,7041.000,6867.000
7695.000,7045.000,6735.000
7748.000,6970.000,6774.000
7724.000,6953.000,6777.000
7673.000,7007.000,6741.000
7638.000,6911.000,6695.000
7564.000,6917.000,6646.000
7578.000,6914.000,6667.000
7539.000,6887.000,6709.000
7453.000,6847.000,6584.000
7460.000,6727.000,6504.000
7417.000,6828.000,6532.000
7411.000,6755.000,6521.000
7381.000,6740.000,6420.000
7380.000,6749.000,6516.000
7394.000,6743.000,6521.000
7362.000,6685.000,6498.000
7332.000,6637.000,6469.000
7309.000,6643.000,6329.000
7257.000,6553.000,6351.000
7240.000,6536.000,6433.000
7286.000,6634.000,6381.000
7223.000,6596.000,6385.000
7280.000,6549.000,6377.000
7261.000,6644.000,6435.000
7205.000,6569.000,6368.000
7159.000,6510.000,6373.000
7198.000,6553.000,6339.000
7237.000,6570.000,6368.000
7210.000,6537.000,6394.000
7186.000,6528.000,6368.000
7231.000,6553.000,6303.000
7243.000,6589.000,6278.000
7161.000,6546.000,6309.000
7216.000,6502.000,6273.000
7177.000,6497.000,6312.000
7117.000,6475.000,6226.000
7027.000,6482.000,6167.000
7096.000,6391.000,6273.000
7065.000,6453.000,6200.000
7020.000,6342.000,6190.000
6976.000,6356.000,6173.000
6910.000,6302.000,6108.000
6855.000,6304.000,6011.000
6863.000,6312.000,6032.000
6805.000,6222.000,6027.000
6789.000,6235.000,6023.000
6784.000,6189.000,5974.000
6692.000,6166.000,5936.000
6714.000,6151.000,5958.000
6644.000,6083.000,5946.000
6676.000,6100.000,5844.000
6531.000,5960.000,5833.000
6508.000,6039.000,5826.000
6603.000,5936.000,5832.000
6527.000,5917.000,5814.000
6512.000,5918.000,5719.000
6478.000,5905.000,5687.000
6374.000,5855.000,5651.000
6456.000,5823.000,5657.000
6390.000,5842.000,5622.000
6396.000,5802.000,5676.000
6286.000,5807.000,5604.000
6299.000,5735.000,5593.000
6199.000,5663.000,5597.000
6283.000,5670.000,5586.000
6179.000,5669.000,5545.000
6229.000,5686.000,5573.000
6229.000,5628.000,5496.000
6207.000,5755.000,5509.000
6181.000,5672.000,5541.000
6145.000,5725.000,5567.000
6151.000,5623.000,5403.000
6137.000,5619.000,5485.000
6178.000,5671.000,5402.000
6143.000,5725.000,5489.000
6110.000,5638.000,5442.000
6103.000,5670.000,5389.000
6105.000,5668.000,5562.000
6079.000,5602.000,5393.000
6081.000,5582.000,5406.000
6041.000,5480.000,5419.000
5995.000,5589.000,5384.000
5968.000,5573.000,5408.000
5979.000,5465.000,5391.000
6049.000,5514.000,5300.000
5947.000,5498.000,5376.000
5966.000,5368.000,5331.000
5912.000,5412.000,5251.000
5894.000,5394.000,5246.000
5874.000,5296.000,5262.000
5793.000,5335.000,5231.000
5760.000,5360.000,5287.000
5831.000,5327.000,5141.000
5747.000,5420.000,5191.000
5738.000,5283.000,5191.000
5750.000,5244.000,5189.000
5672.000,5190.000,5077.000
5668.000,5210.000,5158.000
5576.000,5083.000,5035.000
5637.000,5090.000,5052.000
5531.000,5154.000,5023.000
5567.000,5138.000,5115.000
5522.000,5106.000,5132.000
5523.000,5101.000,5051.000
5562.000,5055.000,5019.000
5460.000,5163.000,5105.000
5518.000,5077.000,5021.000
5537.000,5085.000,5031.000
5491.000,5014.000,5071.000
5440.000,5017.000,5095.000
5495.000,5108.000,5021.000
5449.000,5065.000,5125.000
5466.000,5025.000,5099.000
5515.000,5075.000,5076.000
5518.000,5021.000,5166.000
5504.000,5079.000,5052.000
5567.000,5059.000,5104.000
5450.000,5039.000,5104.000
5495.000,5030.000,5073.000
5480.000,5034.000,5027.000
5384.000,5009.000,5094.000
5408.000,5001.000,5023.000
5323.000,5033.000,4978.000
5407.000,4941.000,4905.000
5414.000,4981.000,4966.000
5347.000,4972.000,4876.000
5326.000,4923.000,4963.000
5350.000,4916.000,4805.000
5250.000,4849.000,4779.000
5239.000,4864.000,4796.000
5251.000,4865.000,4743.000
5196.000,4805.000,4716.000
5161.000,4829.000,4711.000
5198.000,4736.000,4655.000
5152.000,4737.000,4675.000
5048.000,4778.000,4615.000
5009.000,4666.000,4593.000
5005.000,4729.000,4576.000
4976.000,4666.000,4594.000
5004.000,4616.000,4578.000
4962.000,4573.000,4547.000
4935.000,4591.000,4475.000
4979.000,4551.000,4484.000
4929.000,4500.000,4434.000
4920.000,4535.000,4439.000
4888.000,4549.000,4412.000
4867.000,4496.000,4439.000
4873.000,4550.000,4412.000
4796.000,4510.000,4402.000
4847.000,4473.000,4279.000
4794.000,4469.000,4330.000
4759.000,4459.000,4362.000
4777.000,4411.000,4342.000
4752.000,4415.000,4300.000
4806.000,4419.000,4331.000
4812.000,4457.000,4359.000
4751.000,4414.000,4365.000
4772.000,4474.000,4348.000
4804.000,4443.000,4359.000
4828.000,4483.000,4343.000
4829.000,4473.000,4375.000
4837.000,4482.000,4359.000
4842.000,4454.000,4335.000
4772.000,4431.000,4347.000
4781.000,4487.000,4307.000
4816.000,4480.000,4359.000
4761.000,4464.000,4365.000
4811.000,4483.000,4353.000
4756.000,4449.000,4365.000
4813.000,4385.000,4372.000
4729.000,4411.000,4338.000
4725.000,4411.000,4290.000
4733.000,4367.000,4272.000
4674.000,4382.000,4292.000
4657.000,4290.000,4266.000
4673.000,4310.000,4269.000
4651.000,4310.000,4223.000
4586.000,4215.000,4244.000
4686.000,4267.000,4141.000
4597.000,4249.000,4212.000
4610.000,4290.000,4206.000
4605.000,4306.000,4181.000
4552.000,4228.000,4149.000
4555.000,4279.000,4161.000
4581.000,4223.000,4186.000
4582.000,4303.000,4161.000
4596.000,4249.000,4226.000
4636.000,4307.000,4249.000
4630.000,4276.000,4167.000
4630.000,4321.000,4223.000
4631.000,4365.000,4212.000
4622.000,4292.000,4213.000
4622.000,4287.000,4195.000
4676.000,4322.000,4186.000
4600.000,4333.000,4213.000
4638.000,4292.000,4231.000
4659.000,4278.000,4201.000
4639.000,4350.000,4214.000
4641.000,4293.000,4179.000
4642.000,4377.000,4251.000
4651.000,4259.000,4215.000
4601.000,4299.000,4147.000
4578.000,4309.000,4143.000
4547.000,4266.000,4134.000
4594.000,4254.000,4126.000
4548.000,4257.000,4103.000
4529.000,4185.000,4113.000
4492.000,4216.000,4041.000
4518.000,4226.000,4112.000
4516.000,4219.000,4079.000
4435.000,4203.000,4112.000
4436.000,4188.000,4080.000
4466.000,4144.000,4082.000
4423.000,4126.000,4051.000
4366.000,4129.000,3980.000
4440.000,4094.000,4014.000
4407.000,4160.000,4015.000
4444.000,4119.000,4042.000
4428.000,4154.000,4046.000
4476.000,4172.000,4050.000
4423.000,4105.000,3986.000
4499.000,4135.000,4022.000
4483.000,4140.000,4075.000
4434.000,4136.000,4013.000
4451.000,4219.000,4032.000
4539.000,4212.000,4038.000
4523.000,4119.000,4012.000
4496.000,4215.000,4098.000
4556.000,4188.000,4073.000
4556.000,4159.000,4092.000
4522.000,4199.000,4097.000
4525.000,4142.000,4070.000
4517.000,4160.000,4030.000
4501.000,4189.000,4029.000
4546.000,4169.000,4058.000
4516.000,4179.000,4116.000
4494.000,4157.000,4101.000
4502.000,4180.000,4085.000
4506.000,4165.000,4030.000
4488.000,4178.000,4085.000
4426.000,4154.000,4015.000
4432.000,4151.000,4079.000
4444.000,4110.000,4029.000
4448.000,4133.000,4012.000
4449.000,4157.000,3990.000
4460.000,4098.000,3978.000
4338.000,4036.000,3987.000
4369.000,4098.000,3951.000
4381.000,4052.000,3938.000
4363.000,3985.000,3919.000
4319.000,4066.000,3961.000
4331.000,4027.000,3867.000
4298.000,3996.000,3890.000
4285.000,4027.000,3891.000
4317.000,4062.000,3924.000
4277.000,3988.000,3834.000
4238.000,4009.000,3887.000
4288.000,4000.000,3896.000
4293.000,3926.000,3840.000
4340.000,3946.000,3880.000
4344.000,3979.000,3842.000
4291.000,3982.000,3854.000
4285.000,4054.000,3875.000
4295.000,4023.000,3883.000
4315.000,3995.000,3894.000
4368.000,3999.000,3919.000
4327.000,3999.000,3919.000
4285.000,4034.000,3901.000
4411.000,4021.000,3909.000
4332.000,4076.000,3964.000
4387.000,4045.000,3943.000
4363.000,4039.000,4000.000
4376.000,4061.000,3973.000
4360.000,4000.000,3936.000
4370.000,4058.000,3927.000
4398.000,4092.000,3903.000
4389.000,4057.000,3942.000
4393.000,4020.000,3922.000
4375.000,4093.000,3950.000
4339.000,4091.000,3967.000
4362.000,3982.000,3982.000
4307.000,4034.000,3923.000
4365.000,4011.000,3902.000
4328.000,4074.000,3892.000
4329.000,4026.000,3908.000
4301.000,3979.000,3937.000
4331.000,3974.000,3825.000
4337.000,4001.000,3793.000
4270.000,3913.000,3892.000
4154.000,3924.000,3794.000
4285.000,3892.000,3792.000
4267.000,3909.000,3863.000
4188.000,3891.000,3793.000
4232.000,3894.000,3718.000
4166.000,3852.000,3789.000
4192.000,3875.000,3744.000
4189.000,3822.000,3823.000
4142.000,3859.000,3747.000
4201.000,3904.000,3750.000
4204.000,3841.000,3792.000
4147.000,3861.000,3751.000
4163.000,3897.000,3794.000
4206.000,3905.000,3728.000
4157.000,3907.000,3783.000
4148.000,3893.000,3788.000
4225.000,3945.000,3795.000
4243.000,3900.000,3893.000
4228.000,4002.000,3853.000
4221.000,3888.000,3867.000
4233.000,3890.000,3837.000
4203.000,3902.000,3810.000
4241.000,3903.000,3796.000
4242.000,3916.000,3860.000
4283.000,3933.000,3839.000
4224.000,3915.000,3860.000
4287.000,3904.000,3864.000
4277.000,3890.000,3788.000
4258.000,3887.000,3778.000
4194.000,3943.000,3831.000
4281.000,3852.000,3765.000
4199.000,3856.000,3790.000
4174.000,3877.000,3750.000
4183.000,3864.000,3720.000
4194.000,3859.000,3723.000
4174.000,3834.000,3660.000
4055.000,3838.000,3693.000
4117.000,3808.000,3738.000
4122.000,3827.000,3691.000
4053.000,3823.000,3707.000
4083.000,3758.000,3669.000
4027.000,3710.000,3652.000
4047.000,3754.000,3640.000
4037.000,3778.000,3716.000
4078.000,3767.000,3669.000
4031.000,3746.000,3699.000
4031.000,3788.000,3650.000
4096.000,3795.000,3731.000
4066.000,3762.000,3679.000
4123.000,3818.000,3739.000
4107.000,3770.000,3710.000
4142.000,3803.000,3712.000
4102.000,3798.000,3669.000
4116.000,3796.000,3720.000
4152.000,3842.000,3779.000
4139.000,3820.000,3774.000
4165.000,3777.000,3750.000
4143.000,3793.000,3721.000
4106.000,3796.000,3767.000
4193.000,3868.000,3690.000
4102.000,3797.000,3745.000
4173.000,3781.000,3679.000
4132.000,3800.000,3728.000
4078.000,3804.000,3740.000
4127.000,3813.000,3682.000
4105.000,3751.000,3712.000
4074.000,3800.000,3668.000
4078.000,3738.000,3662.000
3972.000,3770.000,3666.000
4018.000,3686.000,3579.000
3976.000,3681.000,3605.000
4014.000,3683.000,3571.000
3999.000,3705.000,3575.000
3992.000,3703.000,3598.000
3994.000,3694.000,3560.000
3955.000,3629.000,3505.000
3900.000,3645.000,3519.000
3887.000,3642.000,3533.000
3899.000,3645.000,3501.000
3878.000,3609.000,3479.000
3891.000,3599.000,3545.000
3909.000,3644.000,3531.000
3874.000,3594.000,3521.000
3910.000,3567.000,3539.000
3866.000,3620.000,3515.000
3912.000,3667.000,3522.000
3932.000,3591.000,3510.000
3949.000,3635.000,3550.000
3929.000,3685.000,3618.000
3916.000,3621.000,3577.000
3959.000,3604.000,3530.000
3972.000,3694.000,3559.000
3908.000,3606.000,3575.000
3963.000,3634.000,3579.000
3894.000,3617.000,3548.000
3925.000,3658.000,3526.000
3899.000,3611.000,3475.000
3847.000,3637.000,3502.000
3887.000,3583.000,3436.000
3883.000,3602.000,3502.000
3895.000,3584.000,3513.000
3904.000,3555.000,3489.000
3833.000,3547.000,3465.000
3863.000,3540.000,3472.000
3844.000,3561.000,3424.000
3822.000,3524.000,3473.000
3781.000,3496.000,3371.000
3791.000,3502.000,3428.000
3743.000,3491.000,3403.000
3714.000,3516.000,3417.000
3721.000,3451.000,3391.000
3748.000,3482.000,3359.000
3680.000,3421.000,3355.000
3659.000,3441.000,3353.000
3661.000,3413.000,3308.000
3697.000,3369.000,3300.000
3627.000,3337.000,3267.000
3654.000,3385.000,3267.000
3599.000,3374.000,3264.000
3579.000,3321.000,3260.000
3584.000,3312.000,3225.000
3583.000,3340.000,3244.000
3581.000,3325.000,3256.000
3530.000,3308.000,3226.000
3539.000,3262.000,3189.000
3552.000,3283.000,3178.000
3512.000,3277.000,3163.000
3499.000,3290.000,3202.000
3525.000,3319.000,3158.000
3525.000,3355.000,3264.000
3568.000,3337.000,3254.000
3535.000,3306.000,3211.000
3566.000,3318.000,3212.000
3531.000,3356.000,3265.000
3543.000,3297.000,3231.000
3591.000,3287.000,3231.000
3580.000,3267.000,3236.000
3521.000,3287.000,3211.000
3500.000,3338.000,3210.000
3469.000,3248.000,3221.000
3521.000,3271.000,3156.000
3481.000,3254.000,3201.000
3463.000,3247.000,3146.000
3534.000,3233.000,3190.000
3558.000,3234.000,3177.000
3438.000,3263.000,3196.000
3467.000,3248.000,3196.000
3489.000,3235.000,3117.000
3434.000,3277.000,3191.000
3461.000,3251.000,3109.000
3428.000,3170.000,3107.000
3437.000,3208.000,3125.000
3348.000,3205.000,3070.000
3365.000,3188.000,3054.000
3340.000,3135.000,3064.000
3373.000,3124.000,3006.000
3375.000,3083.000,3048.000
3289.000,3107.000,3046.000
3334.000,3132.000,3010.000
3290.000,3082.000,3018.000
3265.000,3102.000,3004.000
3256.000,3067.000,2975.000
3238.000,3052.000,2963.000
3209.000,3040.000,2951.000
3320.000,3069.000,2940.000
3200.000,3015.000,2936.000
3234.000,3015.000,2916.000
3281.000,3015.000,2878.000
3168.000,2955.000,2908.000
3207.000,2939.000,2939.000
3205.000,2951.000,2868.000
3230.000,2975.000,2887.000
3239.000,3004.000,2938.000
3213.000,2939.000,2932.000
3149.000,2993.000,2906.000
3201.000,2960.000,2945.000
3208.000,2995.000,2936.000
3244.000,2970.000,2885.000
3205.000,2994.000,2933.000
3215.000,2999.000,2951.000
3216.000,2935.000,2928.000
3184.000,2956.000,2908.000
3170.000,3006.000,2885.000
3239.000,2948.000,2878.000
3154.000,2954.000,2898.000
3173.000,2979.000,2908.000
3123.000,2925.000,2867.000
3259.000,2939.000,2868.000
3110.000,2962.000,2923.000
3143.000,2957.000,2854.000
3115.000,2929.000,2871.000
3110.000,2892.000,2824.000
3084.000,2915.000,2805.000
3081.000,2863.000,2797.000
3035.000,2874.000,2773.000
3086.000,2872.000,2824.000
3053.000,2868.000,2818.000
3037.000,2858.000,2830.000
3025.000,2819.000,2796.000
3028.000,2847.000,2755.000
2987.000,2772.000,2724.000
2979.000,2814.000,2745.000
2984.000,2808.000,2740.000
2967.000,2745.000,2697.000
2961.000,2790.000,2690.000
2935.000,2765.000,2698.000
2912.000,2721.000,2647.000
2936.000,2708.000,2652.000
2883.000,2696.000,2657.000
2845.000,2692.000,2642.000
2846.000,2693.000,2638.000
2831.000,2642.000,2629.000
2807.000,2652.000,2599.000
2786.000,2663.000,2601.000
2864.000,2680.000,2618.000
2795.000,2637.000,2616.000
2864.000,2661.000,2576.000
2796.000,2606.000,2569.000
2799.000,2592.000,2552.000
2797.000,2636.000,2589.000
2827.000,2619.000,2556.000
2776.000,2625.000,2528.000
2815.000,2593.000,2579.000
2839.000,2594.000,2575.000
2756.000,2631.000,2583.000
2812.000,2619.000,2573.000
2753.000,2608.000,2555.000
2791.000,2584.000,2555.000
2802.000,2613.000,2541.000
2784.000,2560.000,2576.000
2812.000,2607.000,2539.000
2806.000,2601.000,2523.000
2768.000,2630.000,2553.000
2754.000,2599.000,2527.000
2725.000,2571.000,2519.000
2715.000,2593.000,2477.000
2695.000,2599.000,2516.000
2749.000,2600.000,2526.000
2668.000,2551.000,2475.000
2695.000,2553.000,2469.000
2703.000,2529.000,2478.000
2631.000,2558.000,2516.000
2671.000,2512.000,2441.000
2677.000,2503.000,2447.000
2656.000,2485.000,2502.000
2608.000,2510.000,2450.000
2589.000,2464.000,2412.000
2611.000,2464.000,2413.000
2544.000,2460.000,2429.000
2563.000,2489.000,2377.000
2580.000,2394.000,2396.000
2553.000,2438.000,2348.000
2546.000,2373.000,2342.000
2487.000,2380.000,2359.000
2525.000,2405.000,2327.000
2470.000,2368.000,2338.000
2499.000,2348.000,2318.000
2473.000,2349.000,2287.000
2456.000,2349.000,2296.000
2448.000,2308.000,2263.000
2478.000,2347.000,2279.000
2417.000,2310.000,2279.000
2442.000,2330.000,2255.000
2433.000,2325.000,2243.000
2409.000,2289.000,2214.000
2427.000,2322.000,2243.000
2411.000,2279.000,2223.000
2417.000,2293.000,2240.000
2407.000,2282.000,2256.000
2398.000,2273.000,2242.000
2427.000,2291.000,2247.000
2401.000,2275.000,2229.000
2388.000,2266.000,2269.000
2421.000,2307.000,2231.000
2432.000,2283.000,2285.000
2366.000,2250.000,2251.000
2382.000,2255.000,2202.000
2391.000,2269.000,2224.000
2394.000,2261.000,2212.000
2352.000,2249.000,2224.000
2368.000,2242.000,2201.000
2319.000,2219.000,2203.000
2328.000,2239.000,2173.000
2320.000,2244.000,2195.000
2312.000,2178.000,2149.000
2329.000,2189.000,2167.000
2305.000,2187.000,2154.000
2289.000,2175.000,2156.000
2291.000,2194.000,2153.000
2260.000,2193.000,2152.000
2258.000,2187.000,2118.000
2251.000,2160.000,2120.000
2254.000,2127.000,2113.000
2243.000,2112.000,2071.000
2229.000,2088.000,2058.000
2200.000,2126.000,2076.000
2161.000,2083.000,2054.000
2196.000,2095.000,2065.000
2166.000,2066.000,2071.000
2144.000,2075.000,2021.000
