Focus Mode,Read Mode,Exposure Time (sec),Number of Frames,Start Y,End Y,Date,Time,Position (microns)
Single Acquisition,Spectrum,20.000000,3,105,125,2/11/2021,5:06:14 PM,0.000000,0.000000,200.010000,

1277.000,1271.000,1268.000
1268.000,1279.000,1267.000
1273.000,1265.000,1268.000
1268.000,1273.000,1261.000
1266.000,1268.000,1264.000
1274.000,1270.000,1272.000
1272.000,1260.000,1272.000
1275.000,1271.000,1274.000
1273.000,1266.000,1268.000
1268.000,1263.000,1274.000
1276.000,1270.000,1265.000
1267.000,1271.000,1276.000
1273.000,1270.000,1271.000
1278.000,1273.000,1272.000
1274.000,1276.000,1270.000
1280.000,1266.000,1273.000
1274.000,1276.000,1272.000
1278.000,1276.000,1269.000
1273.000,1287.000,1277.000
1281.000,1271.000,1283.000
1282.000,1268.000,1276.000
1281.000,1283.000,1275.000
1286.000,1277.000,1277.000
1292.000,1281.000,1279.000
1292.000,1282.000,1284.000
1286.000,1280.000,1292.000
1293.000,1289.000,1292.000
1294.000,1293.000,1283.000
1290.000,1290.000,1286.000
1294.000,1290.000,1290.000
1304.000,1297.000,1294.000
1304.000,1297.000,1289.000
1306.000,1299.000,1301.000
1310.000,1298.000,1303.000
1304.000,1299.000,1304.000
1314.000,1310.000,1296.000
1318.000,1304.000,1306.000
1310.000,1312.000,1317.000
1331.000,1315.000,1319.000
1317.000,1319.000,1318.000
1321.000,1319.000,1318.000
1327.000,1327.000,1319.000
1330.000,1329.000,1330.000
1343.000,1317.000,1335.000
1353.000,1336.000,1342.000
1352.000,1343.000,1336.000
1344.000,1340.000,1339.000
1347.000,1354.000,1355.000
1369.000,1351.000,1359.000
1376.000,1361.000,1360.000
1361.000,1356.000,1358.000
1374.000,1371.000,1377.000
1398.000,1371.000,1373.000
1382.000,1388.000,1384.000
1421.000,1385.000,1388.000
1397.000,1403.000,1381.000
1404.000,1406.000,1404.000
1426.000,1392.000,1405.000
1400.000,1405.000,1410.000
1407.000,1421.000,1415.000
1427.000,1408.000,1405.000
1433.000,1423.000,1410.000
1427.000,1413.000,1416.000
1421.000,1422.000,1423.000
1426.000,1435.000,1421.000
1432.000,1425.000,1425.000
1438.000,1443.000,1429.000
1434.000,1441.000,1447.000
1460.000,1443.000,1461.000
1487.000,1471.000,1459.000
1496.000,1485.000,1487.000
1510.000,1488.000,1514.000
1541.000,1511.000,1518.000
1537.000,1527.000,1517.000
1564.000,1530.000,1550.000
1583.000,1561.000,1555.000
1607.000,1563.000,1554.000
1595.000,1574.000,1600.000
1609.000,1612.000,1598.000
1599.000,1599.000,1591.000
1642.000,1622.000,1599.000
1654.000,1622.000,1624.000
1654.000,1623.000,1609.000
1665.000,1631.000,1645.000
1674.000,1628.000,1643.000
1666.000,1662.000,1669.000
1703.000,1665.000,1663.000
1699.000,1667.000,1653.000
1714.000,1682.000,1703.000
1739.000,1702.000,1692.000
1717.000,1707.000,1715.000
1747.000,1741.000,1735.000
1744.000,1740.000,1761.000
1816.000,1776.000,1783.000
1793.000,1767.000,1769.000
1837.000,1808.000,1792.000
1856.000,1830.000,1860.000
1914.000,1914.000,1897.000
1968.000,1945.000,1967.000
2044.000,2003.000,2021.000
2135.000,2111.000,2078.000
2165.000,2165.000,2166.000
2253.000,2216.000,2234.000
2335.000,2309.000,2308.000
2376.000,2357.000,2387.000
2440.000,2415.000,2421.000
2483.000,2466.000,2459.000
2484.000,2457.000,2443.000
2490.000,2491.000,2503.000
2546.000,2515.000,2493.000
2541.000,2501.000,2555.000
2550.000,2562.000,2538.000
2568.000,2539.000,2584.000
2584.000,2567.000,2600.000
2635.000,2604.000,2615.000
2692.000,2656.000,2734.000
2818.000,2755.000,2801.000
2906.000,2894.000,2913.000
3114.000,2998.000,3058.000
3382.000,3283.000,3363.000
3842.000,3688.000,3873.000
4676.000,4397.000,4753.000
6521.000,6067.000,6676.000
11696.000,10420.000,12437.000
28613.000,24094.000,38061.000
61789.000,61756.000,61781.000
62206.000,62204.000,62200.000
62117.000,62119.000,62115.000
62068.000,62066.000,62070.000
62070.000,62068.000,62076.000
62061.000,62066.000,62058.000
62043.000,62041.000,62046.000
62038.000,62039.000,62047.000
62044.000,62045.000,62043.000
62039.000,62043.000,62036.000
62033.000,62033.000,62036.000
62042.000,62034.000,62037.000
62031.000,62035.000,62039.000
62030.000,62032.000,62034.000
62030.000,62036.000,62034.000
62028.000,62026.000,62030.000
62032.000,62022.000,62027.000
62024.000,62026.000,62029.000
62029.000,62025.000,62030.000
62031.000,62024.000,62027.000
62028.000,62028.000,62029.000
62026.000,62027.000,62029.000
62030.000,62029.000,62027.000
62025.000,62023.000,62026.000
62027.000,62025.000,62025.000
62031.000,62027.000,62027.000
62030.000,62024.000,62024.000
62028.000,62021.000,62029.000
62024.000,62025.000,62028.000
62025.000,62027.000,62026.000
62029.000,62027.000,62028.000
62024.000,62025.000,62028.000
62026.000,62024.000,62026.000
62028.000,62024.000,62027.000
62025.000,62028.000,62027.000
62028.000,62028.000,62021.000
62024.000,62026.000,62029.000
62025.000,62025.000,62024.000
62027.000,62026.000,62029.000
62026.000,62021.000,62028.000
62026.000,62031.000,62028.000
62027.000,62024.000,62025.000
62024.000,62028.000,62028.000
62027.000,62023.000,62032.000
62031.000,62022.000,62027.000
62026.000,62028.000,62025.000
62029.000,62017.000,62031.000
62027.000,62025.000,62028.000
62031.000,62028.000,62028.000
62029.000,62033.000,62035.000
62034.000,62041.000,62046.000
62059.000,62056.000,62069.000
64931.000,48456.000,7086.000
1664.000,1618.000,1575.000
1566.000,1572.000,1545.000
1531.000,1534.000,1556.000
1538.000,1522.000,1535.000
1527.000,1495.000,1503.000
1516.000,1504.000,1501.000
1500.000,1500.000,1478.000
1483.000,1485.000,1478.000
1463.000,1462.000,1459.000
1476.000,1468.000,1457.000
1444.000,1462.000,1462.000
1449.000,1445.000,1448.000
1443.000,1435.000,1432.000
1424.000,1435.000,1441.000
1434.000,1435.000,1433.000
1412.000,1421.000,1423.000
1426.000,1429.000,1418.000
1437.000,1411.000,1429.000
1421.000,1428.000,1395.000
1406.000,1397.000,1406.000
1406.000,1418.000,1416.000
1407.000,1409.000,1406.000
1389.000,1400.000,1404.000
1401.000,1393.000,1391.000
1379.000,1398.000,1385.000
1388.000,1399.000,1391.000
1381.000,1380.000,1387.000
1378.000,1398.000,1364.000
1374.000,1379.000,1379.000
1387.000,1376.000,1372.000
1374.000,1382.000,1375.000
1376.000,1388.000,1385.000
1361.000,1368.000,1379.000
1378.000,1357.000,1350.000
1367.000,1371.000,1355.000
1357.000,1348.000,1353.000
1367.000,1350.000,1362.000
1351.000,1351.000,1355.000
1355.000,1349.000,1348.000
1365.000,1357.000,1372.000
1345.000,1349.000,1347.000
1347.000,1362.000,1344.000
1346.000,1350.000,1343.000
1347.000,1347.000,1343.000
1339.000,1334.000,1343.000
1350.000,1338.000,1341.000
1334.000,1341.000,1325.000
1343.000,1336.000,1327.000
1334.000,1330.000,1334.000
1326.000,1325.000,1336.000
1327.000,1335.000,1311.000
1326.000,1328.000,1338.000
1316.000,1334.000,1330.000
1339.000,1328.000,1320.000
1337.000,1330.000,1327.000
1324.000,1328.000,1336.000
1321.000,1331.000,1320.000
1330.000,1324.000,1311.000
1319.000,1323.000,1314.000
1309.000,1327.000,1323.000
1330.000,1322.000,1319.000
1319.000,1308.000,1322.000
1322.000,1334.000,1302.000
1312.000,1316.000,1319.000
1321.000,1316.000,1315.000
1333.000,1301.000,1326.000
1312.000,1307.000,1311.000
1313.000,1307.000,1318.000
1307.000,1311.000,1307.000
1319.000,1305.000,1312.000
1299.000,1308.000,1313.000
1298.000,1303.000,1315.000
1309.000,1307.000,1308.000
1303.000,1305.000,1304.000
1305.000,1302.000,1300.000
1308.000,1310.000,1298.000
1311.000,1301.000,1304.000
1314.000,1298.000,1300.000
1303.000,1297.000,1299.000
1306.000,1294.000,1298.000
1296.000,1302.000,1304.000
1300.000,1295.000,1285.000
1303.000,1286.000,1303.000
1299.000,1296.000,1299.000
1311.000,1293.000,1301.000
1304.000,1295.000,1300.000
1289.000,1292.000,1296.000
1303.000,1291.000,1299.000
1307.000,1292.000,1298.000
1306.000,1293.000,1293.000
1296.000,1290.000,1291.000
1290.000,1283.000,1294.000
1298.000,1290.000,1293.000
1286.000,1295.000,1291.000
1292.000,1284.000,1287.000
1299.000,1298.000,1297.000
1291.000,1304.000,1288.000
1297.000,1286.000,1296.000
1305.000,1292.000,1295.000
1304.000,1294.000,1295.000
1288.000,1296.000,1300.000
1293.000,1298.000,1292.000
1300.000,1297.000,1287.000
1299.000,1307.000,1296.000
1302.000,1295.000,1306.000
1307.000,1305.000,1298.000
1312.000,1307.000,1304.000
1308.000,1301.000,1316.000
1309.000,1307.000,1319.000
1320.000,1319.000,1329.000
1327.000,1316.000,1328.000
1330.000,1316.000,1332.000
1330.000,1332.000,1335.000
1353.000,1342.000,1345.000
1353.000,1344.000,1362.000
1369.000,1354.000,1364.000
1373.000,1368.000,1369.000
1396.000,1389.000,1395.000
1419.000,1407.000,1423.000
1428.000,1427.000,1445.000
1449.000,1450.000,1436.000
1479.000,1484.000,1474.000
1519.000,1530.000,1516.000
1570.000,1535.000,1550.000
1580.000,1599.000,1583.000
1637.000,1655.000,1656.000
1727.000,1691.000,1704.000
1810.000,1781.000,1795.000
1868.000,1886.000,1896.000
1982.000,1974.000,2013.000
2111.000,2105.000,2115.000
2261.000,2293.000,2268.000
2407.000,2428.000,2443.000
2654.000,2637.000,2671.000
2871.000,2875.000,2912.000
3099.000,3128.000,3136.000
3441.000,3401.000,3392.000
3715.000,3758.000,3747.000
4047.000,4096.000,4096.000
4472.000,4403.000,4476.000
4875.000,4833.000,4954.000
5348.000,5212.000,5297.000
5687.000,5630.000,5670.000
6073.000,6033.000,6081.000
6483.000,6388.000,6494.000
6743.000,6686.000,6749.000
7088.000,7104.000,7125.000
7226.000,7300.000,7288.000
7507.000,7538.000,7723.000
7742.000,7642.000,7762.000
7911.000,7773.000,7822.000
7912.000,7929.000,8001.000
8043.000,8008.000,8127.000
8074.000,8001.000,8110.000
8150.000,8034.000,8106.000
8128.000,8092.000,8182.000
8135.000,8145.000,8282.000
8163.000,8107.000,8158.000
8042.000,8093.000,8148.000
8139.000,8004.000,8164.000
8204.000,8142.000,8179.000
8128.000,8051.000,8196.000
8193.000,7991.000,8049.000
8076.000,7983.000,8087.000
8131.000,8075.000,8138.000
8095.000,8070.000,8185.000
8054.000,7972.000,8133.000
8051.000,8099.000,8160.000
8107.000,8032.000,8125.000
8129.000,8056.000,8066.000
8163.000,8159.000,8161.000
8123.000,8120.000,8160.000
8103.000,8059.000,8183.000
8108.000,8013.000,8086.000
8117.000,8024.000,8169.000
8092.000,8106.000,8204.000
8153.000,8055.000,8122.000
8185.000,8145.000,8100.000
8112.000,8119.000,8227.000
8073.000,8115.000,8187.000
8094.000,8213.000,8112.000
8124.000,8091.000,8196.000
8060.000,8059.000,8193.000
8128.000,8147.000,8202.000
8175.000,8143.000,8209.000
8151.000,8151.000,8181.000
8111.000,8148.000,8151.000
8118.000,8034.000,8240.000
8122.000,8090.000,8234.000
8183.000,8080.000,8216.000
8091.000,8095.000,8267.000
8137.000,8092.000,8118.000
8167.000,8097.000,8229.000
8148.000,8119.000,8368.000
8237.000,8220.000,8252.000
8263.000,8150.000,8294.000
8198.000,8152.000,8265.000
8217.000,8170.000,8291.000
8311.000,8325.000,8241.000
8201.000,8227.000,8359.000
8311.000,8266.000,8425.000
8347.000,8302.000,8383.000
8374.000,8390.000,8384.000
8371.000,8392.000,8390.000
8360.000,8245.000,8386.000
8405.000,8466.000,8502.000
8435.000,8271.000,8363.000
8412.000,8354.000,8445.000
8436.000,8368.000,8512.000
8493.000,8402.000,8603.000
8477.000,8393.000,8431.000
8384.000,8371.000,8463.000
8519.000,8423.000,8545.000
8532.000,8501.000,8556.000
8410.000,8468.000,8490.000
8459.000,8405.000,8502.000
8481.000,8472.000,8679.000
8614.000,8531.000,8641.000
8488.000,8442.000,8591.000
8556.000,8545.000,8725.000
8549.000,8460.000,8571.000
8574.000,8556.000,8596.000
8582.000,8552.000,8663.000
8607.000,8526.000,8646.000
8525.000,8561.000,8610.000
8511.000,8585.000,8617.000
8463.000,8508.000,8557.000
8561.000,8503.000,8632.000
8520.000,8537.000,8726.000
8593.000,8567.000,8630.000
8481.000,8575.000,8611.000
8593.000,8519.000,8626.000
8622.000,8589.000,8671.000
8635.000,8514.000,8700.000
8608.000,8583.000,8733.000
8643.000,8639.000,8745.000
8586.000,8609.000,8654.000
8628.000,8552.000,8665.000
8640.000,8556.000,8741.000
8637.000,8556.000,8686.000
8708.000,8607.000,8642.000
8664.000,8553.000,8693.000
8684.000,8615.000,8781.000
8611.000,8646.000,8820.000
8597.000,8611.000,8759.000
8611.000,8637.000,8703.000
8690.000,8634.000,8763.000
8760.000,8703.000,8716.000
8703.000,8713.000,8752.000
8756.000,8697.000,8727.000
8824.000,8722.000,8810.000
8726.000,8799.000,8891.000
8746.000,8722.000,8859.000
8807.000,8733.000,8888.000
8864.000,8833.000,8865.000
8924.000,8847.000,8937.000
8908.000,8863.000,9011.000
8954.000,8901.000,9022.000
8846.000,8893.000,9009.000
8926.000,8899.000,8953.000
8827.000,8885.000,8908.000
8867.000,8966.000,8971.000
8890.000,8851.000,8938.000
8953.000,8875.000,9084.000
8867.000,8859.000,8986.000
8968.000,8843.000,9010.000
8984.000,8834.000,9003.000
8890.000,8952.000,8986.000
8969.000,8914.000,9147.000
9020.000,8979.000,9068.000
9021.000,8902.000,9085.000
8999.000,8964.000,9046.000
8953.000,8952.000,9075.000
9050.000,9010.000,9109.000
8898.000,8891.000,9065.000
9015.000,8925.000,9055.000
8985.000,8960.000,9070.000
9027.000,8921.000,8960.000
8990.000,8917.000,9066.000
9000.000,8915.000,9084.000
9012.000,9036.000,9057.000
8991.000,8910.000,9062.000
9000.000,8979.000,9009.000
8897.000,8951.000,9075.000
8895.000,8948.000,9038.000
8865.000,8913.000,9018.000
8983.000,9009.000,9122.000
8921.000,9024.000,9019.000
8992.000,8907.000,8948.000
8999.000,8960.000,9018.000
9039.000,8888.000,9067.000
9025.000,9072.000,8997.000
8918.000,8997.000,9040.000
9056.000,8996.000,9085.000
9057.000,8981.000,9116.000
9022.000,8966.000,9117.000
8932.000,9002.000,9029.000
9068.000,8989.000,9092.000
9054.000,8986.000,9126.000
8955.000,8986.000,9095.000
9082.000,8968.000,9150.000
9043.000,8967.000,9124.000
9047.000,9020.000,9055.000
9048.000,9015.000,9078.000
8985.000,8953.000,9084.000
8936.000,8950.000,9040.000
9025.000,8972.000,9127.000
9046.000,9010.000,9175.000
8997.000,8981.000,9076.000
9143.000,9090.000,9114.000
9028.000,9007.000,9175.000
9094.000,8971.000,9099.000
9134.000,9052.000,9139.000
8969.000,9110.000,9190.000
9203.000,9098.000,9196.000
9138.000,9015.000,9151.000
9162.000,9026.000,9138.000
9085.000,9098.000,9293.000
9265.000,9088.000,9103.000
9154.000,9148.000,9220.000
9247.000,9137.000,9242.000
9232.000,8992.000,9149.000
9187.000,9188.000,9182.000
9115.000,9219.000,9343.000
9257.000,9116.000,9171.000
9151.000,9098.000,9419.000
9216.000,9217.000,9216.000
9211.000,9174.000,9248.000
9112.000,9177.000,9361.000
9182.000,9186.000,9311.000
9172.000,9102.000,9159.000
9082.000,9128.000,9251.000
9008.000,9059.000,9097.000
9063.000,9134.000,9112.000
9043.000,9071.000,9052.000
9102.000,8983.000,9177.000
9020.000,8934.000,9139.000
8923.000,8948.000,9063.000
8971.000,8954.000,9058.000
8850.000,8974.000,9081.000
8794.000,8841.000,8913.000
8830.000,8821.000,8938.000
8846.000,8748.000,8964.000
8828.000,8806.000,8886.000
8868.000,8772.000,8963.000
8835.000,8775.000,8909.000
8767.000,8750.000,8878.000
8875.000,8755.000,8907.000
8756.000,8794.000,8862.000
8719.000,8751.000,8829.000
8854.000,8764.000,8863.000
8795.000,8578.000,8876.000
8803.000,8775.000,8912.000
8813.000,8798.000,8794.000
8748.000,8783.000,8842.000
8793.000,8788.000,8771.000
8680.000,8614.000,8699.000
8672.000,8606.000,8845.000
8703.000,8721.000,8766.000
8668.000,8664.000,8751.000
8628.000,8713.000,8813.000
8591.000,8726.000,8725.000
8587.000,8666.000,8777.000
8639.000,8662.000,8777.000
8661.000,8705.000,8708.000
8606.000,8650.000,8662.000
8588.000,8561.000,8678.000
8603.000,8554.000,8757.000
8682.000,8703.000,8781.000
8690.000,8554.000,8723.000
8706.000,8602.000,8687.000
8680.000,8654.000,8656.000
8701.000,8586.000,8711.000
8660.000,8694.000,8817.000
8655.000,8714.000,8761.000
8655.000,8563.000,8752.000
8701.000,8685.000,8758.000
8708.000,8647.000,8783.000
8703.000,8627.000,8876.000
8742.000,8667.000,8656.000
8651.000,8666.000,8818.000
8740.000,8634.000,8892.000
8649.000,8739.000,8737.000
8680.000,8632.000,8829.000
8676.000,8737.000,8799.000
8682.000,8617.000,8913.000
8648.000,8752.000,8828.000
8706.000,8710.000,8860.000
8782.000,8724.000,8840.000
8824.000,8739.000,8815.000
8819.000,8779.000,8951.000
8830.000,8791.000,8921.000
8751.000,8780.000,8839.000
8776.000,8826.000,8913.000
8816.000,8696.000,8953.000
8793.000,8691.000,8859.000
8737.000,8725.000,8770.000
8787.000,8699.000,8828.000
8802.000,8733.000,8837.000
8788.000,8647.000,8812.000
8785.000,8659.000,8746.000
8713.000,8586.000,8861.000
8743.000,8742.000,8811.000
8736.000,8667.000,8742.000
8624.000,8813.000,8828.000
8751.000,8684.000,8749.000
8815.000,8689.000,8856.000
8791.000,8758.000,8798.000
8766.000,8762.000,8978.000
8775.000,8796.000,8914.000
8783.000,8802.000,8946.000
8721.000,8870.000,8839.000
8828.000,8739.000,8875.000
8856.000,8783.000,8811.000
8796.000,8717.000,8837.000
8719.000,8700.000,8926.000
8662.000,8733.000,8796.000
8710.000,8666.000,8791.000
8640.000,8604.000,8759.000
8721.000,8697.000,8806.000
8661.000,8641.000,8810.000
8596.000,8540.000,8701.000
8738.000,8639.000,8699.000
8597.000,8661.000,8671.000
8744.000,8567.000,8765.000
8586.000,8636.000,8752.000
8672.000,8625.000,8746.000
8695.000,8546.000,8837.000
8605.000,8557.000,8760.000
8666.000,8578.000,8781.000
8642.000,8569.000,8695.000
8623.000,8456.000,8660.000
8667.000,8571.000,8637.000
8553.000,8528.000,8539.000
8576.000,8434.000,8591.000
8536.000,8608.000,8586.000
8558.000,8468.000,8687.000
8602.000,8536.000,8651.000
8518.000,8427.000,8504.000
8513.000,8515.000,8659.000
8553.000,8531.000,8632.000
8606.000,8601.000,8673.000
8615.000,8486.000,8784.000
8540.000,8490.000,8687.000
8542.000,8678.000,8663.000
8481.000,8587.000,8647.000
8593.000,8596.000,8750.000
8603.000,8596.000,8637.000
8595.000,8492.000,8657.000
8590.000,8567.000,8618.000
8535.000,8589.000,8608.000
8583.000,8459.000,8544.000
8486.000,8545.000,8532.000
8495.000,8444.000,8593.000
8512.000,8465.000,8624.000
8471.000,8473.000,8607.000
8518.000,8497.000,8580.000
8545.000,8434.000,8551.000
8547.000,8438.000,8578.000
8545.000,8559.000,8581.000
8473.000,8511.000,8649.000
8547.000,8624.000,8688.000
8581.000,8603.000,8637.000
8632.000,8557.000,8663.000
8537.000,8538.000,8672.000
8619.000,8562.000,8723.000
8556.000,8434.000,8657.000
8646.000,8562.000,8660.000
8561.000,8462.000,8663.000
8544.000,8510.000,8594.000
8570.000,8542.000,8643.000
8569.000,8582.000,8658.000
8511.000,8538.000,8704.000
8603.000,8447.000,8623.000
8468.000,8458.000,8597.000
8461.000,8524.000,8650.000
8563.000,8477.000,8625.000
8465.000,8495.000,8578.000
8544.000,8527.000,8649.000
8503.000,8442.000,8682.000
8550.000,8587.000,8627.000
8578.000,8499.000,8579.000
8632.000,8505.000,8623.000
8504.000,8493.000,8682.000
8477.000,8536.000,8589.000
8561.000,8517.000,8606.000
8531.000,8535.000,8650.000
8536.000,8526.000,8627.000
8518.000,8486.000,8584.000
8535.000,8404.000,8613.000
8497.000,8459.000,8478.000
8471.000,8543.000,8610.000
8451.000,8514.000,8656.000
8451.000,8499.000,8719.000
8391.000,8442.000,8570.000
8430.000,8551.000,8571.000
8599.000,8496.000,8545.000
8549.000,8400.000,8596.000
8562.000,8469.000,8640.000
8530.000,8421.000,8713.000
8464.000,8541.000,8676.000
8471.000,8481.000,8505.000
8585.000,8456.000,8641.000
8527.000,8512.000,8761.000
8608.000,8456.000,8590.000
8512.000,8526.000,8543.000
8562.000,8495.000,8607.000
8477.000,8569.000,8702.000
8500.000,8495.000,8677.000
8470.000,8471.000,8578.000
8449.000,8538.000,8647.000
8609.000,8504.000,8712.000
8533.000,8557.000,8585.000
8511.000,8584.000,8624.000
8536.000,8541.000,8630.000
8481.000,8500.000,8611.000
8533.000,8472.000,8567.000
8568.000,8525.000,8617.000
8536.000,8544.000,8624.000
8503.000,8465.000,8669.000
8467.000,8446.000,8551.000
8507.000,8455.000,8552.000
8529.000,8445.000,8654.000
8484.000,8417.000,8542.000
8499.000,8420.000,8595.000
8550.000,8396.000,8524.000
8445.000,8505.000,8647.000
8586.000,8504.000,8556.000
8484.000,8436.000,8556.000
8534.000,8444.000,8691.000
8479.000,8462.000,8571.000
8570.000,8392.000,8599.000
8441.000,8495.000,8524.000
8534.000,8454.000,8657.000
8547.000,8539.000,8746.000
8571.000,8478.000,8668.000
8511.000,8491.000,8580.000
8526.000,8402.000,8544.000
8556.000,8464.000,8617.000
8536.000,8393.000,8666.000
8542.000,8475.000,8630.000
8555.000,8469.000,8576.000
8503.000,8467.000,8524.000
8454.000,8466.000,8516.000
8404.000,8505.000,8592.000
8569.000,8402.000,8592.000
8361.000,8464.000,8514.000
8511.000,8437.000,8455.000
8522.000,8436.000,8575.000
8346.000,8513.000,8543.000
8493.000,8478.000,8559.000
8554.000,8483.000,8597.000
8463.000,8426.000,8528.000
8450.000,8384.000,8623.000
8517.000,8484.000,8543.000
8500.000,8451.000,8541.000
8479.000,8513.000,8565.000
8496.000,8435.000,8556.000
8417.000,8359.000,8435.000
8388.000,8413.000,8557.000
8388.000,8410.000,8461.000
8508.000,8348.000,8523.000
8417.000,8336.000,8487.000
8297.000,8315.000,8401.000
8403.000,8379.000,8423.000
8401.000,8327.000,8617.000
8404.000,8353.000,8406.000
8474.000,8373.000,8538.000
8407.000,8458.000,8519.000
8399.000,8382.000,8466.000
8558.000,8461.000,8605.000
8492.000,8435.000,8510.000
8481.000,8417.000,8480.000
8424.000,8501.000,8511.000
8415.000,8474.000,8515.000
8448.000,8412.000,8536.000
8454.000,8389.000,8492.000
8396.000,8407.000,8485.000
8462.000,8407.000,8518.000
8356.000,8327.000,8471.000
8496.000,8382.000,8542.000
8392.000,8347.000,8539.000
8432.000,8380.000,8489.000
8354.000,8357.000,8526.000
8417.000,8426.000,8527.000
8456.000,8418.000,8488.000
8412.000,8327.000,8496.000
8419.000,8403.000,8508.000
8446.000,8299.000,8471.000
8280.000,8399.000,8487.000
8491.000,8394.000,8483.000
8419.000,8316.000,8459.000
8412.000,8410.000,8513.000
8401.000,8450.000,8518.000
8439.000,8364.000,8511.000
8556.000,8416.000,8499.000
8413.000,8382.000,8617.000
8536.000,8424.000,8556.000
8367.000,8501.000,8535.000
8544.000,8379.000,8558.000
8441.000,8422.000,8597.000
8434.000,8427.000,8614.000
8447.000,8430.000,8549.000
8471.000,8536.000,8623.000
8480.000,8467.000,8541.000
8506.000,8495.000,8619.000
8491.000,8543.000,8646.000
8463.000,8530.000,8604.000
8473.000,8589.000,8600.000
8557.000,8473.000,8634.000
8515.000,8456.000,8557.000
8522.000,8592.000,8642.000
8503.000,8535.000,8616.000
8519.000,8545.000,8534.000
8536.000,8558.000,8541.000
8531.000,8427.000,8630.000
8486.000,8452.000,8609.000
8548.000,8552.000,8651.000
8558.000,8526.000,8563.000
8499.000,8548.000,8626.000
8544.000,8414.000,8592.000
8528.000,8531.000,8598.000
8485.000,8455.000,8516.000
8412.000,8469.000,8644.000
8526.000,8478.000,8509.000
8501.000,8576.000,8553.000
8491.000,8493.000,8575.000
8583.000,8536.000,8547.000
8585.000,8505.000,8503.000
8553.000,8416.000,8633.000
8477.000,8458.000,8483.000
8472.000,8354.000,8535.000
8471.000,8441.000,8591.000
8454.000,8464.000,8590.000
8418.000,8379.000,8487.000
8418.000,8413.000,8483.000
8383.000,8282.000,8311.000
8485.000,8350.000,8410.000
8439.000,8397.000,8475.000
8311.000,8300.000,8405.000
8306.000,8375.000,8463.000
8368.000,8375.000,8470.000
8388.000,8386.000,8463.000
8312.000,8269.000,8437.000
8285.000,8230.000,8474.000
8343.000,8151.000,8411.000
8341.000,8209.000,8324.000
8293.000,8278.000,8320.000
8312.000,8282.000,8372.000
8350.000,8303.000,8347.000
8334.000,8209.000,8432.000
8303.000,8253.000,8405.000
8237.000,8242.000,8331.000
8251.000,8331.000,8341.000
8203.000,8247.000,8230.000
8256.000,8152.000,8451.000
8137.000,8285.000,8272.000
8289.000,8196.000,8297.000
8372.000,8074.000,8351.000
8299.000,8142.000,8233.000
8200.000,8217.000,8321.000
8253.000,8187.000,8280.000
8204.000,8123.000,8316.000
8235.000,8253.000,8219.000
8266.000,8153.000,8337.000
8207.000,8179.000,8275.000
8180.000,8219.000,8332.000
8262.000,8212.000,8311.000
8247.000,8232.000,8398.000
8228.000,8157.000,8367.000
8292.000,8190.000,8390.000
8151.000,8148.000,8382.000
8244.000,8190.000,8329.000
8186.000,8183.000,8369.000
8333.000,8180.000,8339.000
8438.000,8194.000,8333.000
8238.000,8228.000,8358.000
8356.000,8344.000,8315.000
8290.000,8219.000,8332.000
8257.000,8261.000,8330.000
8352.000,8292.000,8328.000
8223.000,8212.000,8431.000
8231.000,8279.000,8354.000
8224.000,8285.000,8350.000
8166.000,8267.000,8317.000
8200.000,8123.000,8321.000
8314.000,8207.000,8295.000
8263.000,8240.000,8252.000
8243.000,8198.000,8423.000
8275.000,8187.000,8267.000
8285.000,8299.000,8387.000
8259.000,8240.000,8410.000
8184.000,8318.000,8244.000
8329.000,8203.000,8421.000
8252.000,8307.000,8402.000
8205.000,8313.000,8309.000
8214.000,8243.000,8430.000
8299.000,8239.000,8394.000
8305.000,8270.000,8318.000
8375.000,8292.000,8386.000
8248.000,8227.000,8377.000
8196.000,8224.000,8366.000
8312.000,8175.000,8388.000
8220.000,8157.000,8350.000
8307.000,8270.000,8345.000
8240.000,8226.000,8249.000
8161.000,8181.000,8264.000
8238.000,8150.000,8343.000
8208.000,8143.000,8222.000
8110.000,8151.000,8249.000
8194.000,8207.000,8323.000
8237.000,8106.000,8252.000
8186.000,8101.000,8308.000
8220.000,8173.000,8319.000
8113.000,8090.000,8231.000
8162.000,8103.000,8237.000
8131.000,8152.000,8290.000
8163.000,8110.000,8182.000
8060.000,8067.000,8214.000
8190.000,8052.000,8210.000
8125.000,8063.000,8175.000
8163.000,8059.000,8234.000
8127.000,8004.000,8044.000
8128.000,8098.000,8107.000
8127.000,7946.000,8063.000
8072.000,8069.000,8064.000
8000.000,7946.000,8074.000
8066.000,7980.000,8067.000
8048.000,7934.000,8076.000
8014.000,8026.000,8086.000
8128.000,7920.000,8077.000
8026.000,7985.000,8051.000
7988.000,7890.000,8025.000
7981.000,7970.000,8101.000
8040.000,7955.000,8063.000
8002.000,7950.000,8096.000
7915.000,7944.000,8015.000
7925.000,7990.000,8029.000
7963.000,7946.000,8057.000
7849.000,7899.000,7951.000
7977.000,7882.000,8034.000
7928.000,7896.000,7907.000
7901.000,7924.000,7833.000
7937.000,7846.000,8046.000
7897.000,7923.000,8056.000
7916.000,7911.000,7994.000
7965.000,7784.000,7979.000
7901.000,7877.000,7953.000
7893.000,7835.000,8056.000
7984.000,7927.000,7917.000
7924.000,7869.000,7982.000
7998.000,7878.000,7979.000
7986.000,7950.000,7922.000
8061.000,8006.000,8051.000
8015.000,8015.000,8129.000
8117.000,8045.000,8097.000
8109.000,8050.000,8193.000
8111.000,8028.000,8053.000
8107.000,8094.000,8205.000
8079.000,8029.000,8059.000
7965.000,8041.000,8072.000
8129.000,7876.000,7979.000
8058.000,8102.000,8071.000
8056.000,7923.000,8039.000
7983.000,7975.000,8037.000
8050.000,7888.000,7978.000
8060.000,7893.000,7979.000
7999.000,7895.000,7888.000
7929.000,7897.000,7952.000
7846.000,7875.000,7813.000
7893.000,7781.000,7820.000
7835.000,7910.000,7906.000
7868.000,7720.000,7818.000
7785.000,7780.000,7835.000
7865.000,7788.000,7934.000
7831.000,7703.000,7938.000
7872.000,7843.000,7882.000
7892.000,7816.000,7883.000
7757.000,7745.000,7790.000
7841.000,7787.000,7751.000
7790.000,7811.000,7908.000
7824.000,7845.000,7982.000
7852.000,7838.000,7991.000
7795.000,7826.000,7919.000
7896.000,7811.000,7923.000
7841.000,7701.000,7908.000
7751.000,7749.000,7865.000
7796.000,7727.000,7826.000
7741.000,7676.000,7823.000
7841.000,7658.000,7833.000
7781.000,7661.000,7767.000
7758.000,7705.000,7792.000
7700.000,7734.000,7783.000
7709.000,7730.000,7827.000
7713.000,7535.000,7771.000
7728.000,7707.000,7683.000
7720.000,7639.000,7892.000
7687.000,7624.000,7739.000
7675.000,7622.000,7748.000
7670.000,7638.000,7765.000
7687.000,7602.000,7672.000
7635.000,7594.000,7610.000
7632.000,7548.000,7738.000
7629.000,7571.000,7674.000
7514.000,7580.000,7657.000
7626.000,7646.000,7663.000
7612.000,7533.000,7554.000
7540.000,7500.000,7695.000
7607.000,7542.000,7680.000
7581.000,7549.000,7624.000
7566.000,7508.000,7708.000
7597.000,7577.000,7567.000
7488.000,7547.000,7628.000
7430.000,7435.000,7595.000
7590.000,7489.000,7594.000
7510.000,7537.000,7587.000
7526.000,7474.000,7573.000
7591.000,7411.000,7550.000
7575.000,7540.000,7699.000
7555.000,7454.000,7690.000
7406.000,7458.000,7646.000
7457.000,7393.000,7471.000
7527.000,7433.000,7455.000
7487.000,7415.000,7547.000
7411.000,7490.000,7565.000
7362.000,7384.000,7602.000
7438.000,7307.000,7436.000
7319.000,7406.000,7420.000
7370.000,7296.000,7449.000
7338.000,7309.000,7426.000
7326.000,7293.000,7496.000
7395.000,7268.000,7444.000
7346.000,7285.000,7375.000
7344.000,7306.000,7341.000
7361.000,7355.000,7436.000
7297.000,7271.000,7346.000
7299.000,7223.000,7314.000
7307.000,7214.000,7328.000
7359.000,7269.000,7304.000
7380.000,7276.000,7382.000
7307.000,7253.000,7349.000
7188.000,7249.000,7323.000
7254.000,7151.000,7318.000
7219.000,7215.000,7211.000
7205.000,7234.000,7273.000
7204.000,7160.000,7264.000
7172.000,7218.000,7275.000
7283.000,7170.000,7294.000
7258.000,7154.000,7315.000
7195.000,7123.000,7274.000
7136.000,7174.000,7203.000
7198.000,7098.000,7260.000
7130.000,7103.000,7122.000
7111.000,7126.000,7175.000
7166.000,7152.000,7191.000
7170.000,7059.000,7129.000
7071.000,7010.000,7182.000
7056.000,7093.000,7183.000
7050.000,7155.000,7059.000
7063.000,7106.000,7149.000
6994.000,6880.000,7042.000
7008.000,6962.000,7087.000
6989.000,6968.000,7111.000
6970.000,6995.000,7089.000
6967.000,7019.000,7125.000
7023.000,6955.000,7070.000
6978.000,7003.000,6999.000
7056.000,6973.000,7111.000
7067.000,7043.000,7127.000
7090.000,7106.000,7090.000
7024.000,7118.000,7144.000
6989.000,7015.000,7126.000
6969.000,6907.000,7066.000
7033.000,7012.000,7061.000
7015.000,6970.000,7052.000
6999.000,6944.000,7019.000
6943.000,6922.000,6983.000
6926.000,6892.000,6933.000
6907.000,6900.000,6970.000
6970.000,6809.000,7024.000
6952.000,6857.000,6922.000
6854.000,6856.000,6876.000
6918.000,6823.000,6891.000
6885.000,6803.000,6808.000
6883.000,6744.000,6783.000
6761.000,6803.000,6809.000
6687.000,6827.000,6873.000
6796.000,6779.000,6800.000
6776.000,6679.000,6760.000
6663.000,6693.000,6764.000
6697.000,6684.000,6705.000
6652.000,6585.000,6727.000
6702.000,6609.000,6759.000
6679.000,6651.000,6663.000
6713.000,6554.000,6724.000
6682.000,6667.000,6705.000
6717.000,6727.000,6696.000
6689.000,6737.000,6771.000
6747.000,6715.000,6686.000
6840.000,6763.000,6768.000
6828.000,6771.000,6759.000
6852.000,6695.000,6699.000
6812.000,6761.000,6657.000
6895.000,6731.000,6693.000
6816.000,6762.000,6717.000
6776.000,6750.000,6690.000
6774.000,6628.000,6621.000
6715.000,6562.000,6572.000
6699.000,6655.000,6653.000
6683.000,6551.000,6586.000
6587.000,6546.000,6543.000
6511.000,6458.000,6492.000
6446.000,6481.000,6506.000
6546.000,6370.000,6531.000
6512.000,6368.000,6418.000
6514.000,6439.000,6412.000
6438.000,6407.000,6439.000
6446.000,6385.000,6478.000
6374.000,6364.000,6429.000
6392.000,6393.000,6397.000
6454.000,6418.000,6419.000
6385.000,6377.000,6421.000
6387.000,6311.000,6415.000
6382.000,6361.000,6479.000
6365.000,6493.000,6450.000
6374.000,6368.000,6412.000
6435.000,6364.000,6435.000
6381.000,6321.000,6423.000
6365.000,6352.000,6354.000
6507.000,6405.000,6506.000
6348.000,6432.000,6475.000
6466.000,6325.000,6395.000
6407.000,6436.000,6391.000
6468.000,6351.000,6398.000
6535.000,6397.000,6421.000
6465.000,6340.000,6317.000
6467.000,6417.000,6393.000
6527.000,6371.000,6361.000
6464.000,6432.000,6401.000
6515.000,6486.000,6474.000
6561.000,6405.000,6424.000
6572.000,6459.000,6470.000
6522.000,6399.000,6480.000
6590.000,6466.000,6439.000
6486.000,6396.000,6478.000
6496.000,6377.000,6455.000
6532.000,6421.000,6534.000
6421.000,6408.000,6393.000
6465.000,6287.000,6416.000
6333.000,6351.000,6328.000
6277.000,6356.000,6322.000
6336.000,6289.000,6332.000
6276.000,6264.000,6270.000
6215.000,6224.000,6276.000
6309.000,6191.000,6250.000
6239.000,6177.000,6260.000
6165.000,6235.000,6203.000
6215.000,6174.000,6295.000
6231.000,6214.000,6281.000
6231.000,6168.000,6282.000
6248.000,6132.000,6264.000
6250.000,6260.000,6273.000
6254.000,6256.000,6290.000
6196.000,6301.000,6327.000
6269.000,6234.000,6327.000
6261.000,6133.000,6251.000
6212.000,6224.000,6267.000
6175.000,6069.000,6260.000
6237.000,6210.000,6202.000
6113.000,6134.000,6244.000
6128.000,6119.000,6146.000
6181.000,6158.000,6249.000
6167.000,6140.000,6171.000
6160.000,6131.000,6185.000
6127.000,6162.000,6206.000
6243.000,6193.000,6254.000
6212.000,6284.000,6297.000
6279.000,6188.000,6227.000
6242.000,6267.000,6236.000
6239.000,6179.000,6322.000
6294.000,6149.000,6320.000
6250.000,6275.000,6227.000
6249.000,6179.000,6225.000
6144.000,6187.000,6219.000
6102.000,6102.000,6157.000
6076.000,6144.000,6215.000
6202.000,6209.000,6238.000
6123.000,6112.000,6191.000
6133.000,6220.000,6265.000
6116.000,6103.000,6217.000
6219.000,6097.000,6303.000
6232.000,6247.000,6265.000
6252.000,6219.000,6261.000
6224.000,6243.000,6250.000
6240.000,6215.000,6362.000
6311.000,6221.000,6326.000
6226.000,6211.000,6292.000
6261.000,6144.000,6343.000
6273.000,6177.000,6263.000
6116.000,6134.000,6218.000
6252.000,6140.000,6230.000
6115.000,6159.000,6318.000
6230.000,6054.000,6256.000
6200.000,6162.000,6252.000
6258.000,6108.000,6257.000
6315.000,6234.000,6293.000
6211.000,6216.000,6341.000
6290.000,6171.000,6250.000
6367.000,6279.000,6348.000
6378.000,6354.000,6347.000
6381.000,6312.000,6300.000
6395.000,6385.000,6378.000
6400.000,6427.000,6352.000
6436.000,6366.000,6328.000
6348.000,6255.000,6349.000
6323.000,6263.000,6319.000
6324.000,6270.000,6244.000
6171.000,6212.000,6276.000
6331.000,6219.000,6210.000
6223.000,6214.000,6200.000
6274.000,6231.000,6165.000
6224.000,6219.000,6190.000
6266.000,6186.000,6232.000
6205.000,6263.000,6170.000
6257.000,6231.000,6246.000
6192.000,6245.000,6335.000
6294.000,6217.000,6311.000
6229.000,6238.000,6290.000
6325.000,6250.000,6277.000
6289.000,6204.000,6303.000
6213.000,6221.000,6218.000
6273.000,6292.000,6259.000
6249.000,6203.000,6295.000
6300.000,6230.000,6276.000
6157.000,6198.000,6322.000
6264.000,6214.000,6200.000
6288.000,6159.000,6146.000
6164.000,6155.000,6184.000
6172.000,6147.000,6188.000
6220.000,6114.000,6162.000
6155.000,6114.000,6124.000
6177.000,6156.000,6182.000
6152.000,6200.000,6174.000
6223.000,6175.000,6122.000
6170.000,6158.000,6192.000
6241.000,6106.000,6205.000
6196.000,6164.000,6302.000
6245.000,6259.000,6297.000
6202.000,6163.000,6309.000
6189.000,6176.000,6271.000
6215.000,6253.000,6279.000
6218.000,6250.000,6227.000
6284.000,6202.000,6259.000
6265.000,6177.000,6282.000
6236.000,6217.000,6234.000
6292.000,6155.000,6263.000
6200.000,6164.000,6180.000
6181.000,6135.000,6274.000
6135.000,6159.000,6170.000
6230.000,6090.000,6204.000
6125.000,6144.000,6128.000
6151.000,6125.000,6254.000
6086.000,6089.000,6201.000
6141.000,6127.000,6144.000
6051.000,6084.000,6144.000
6169.000,6072.000,6130.000
6085.000,6013.000,6168.000
6114.000,6033.000,6071.000
6069.000,6056.000,6107.000
6086.000,6041.000,6101.000
6071.000,6029.000,6146.000
6069.000,6084.000,6094.000
6155.000,6170.000,6174.000
6063.000,6075.000,6197.000
6139.000,6032.000,6087.000
6080.000,6081.000,6215.000
6089.000,6223.000,6120.000
6076.000,6109.000,6132.000
6103.000,6129.000,6175.000
6059.000,6034.000,6060.000
6078.000,6021.000,6169.000
6066.000,6103.000,6067.000
6024.000,6071.000,6070.000
5992.000,6025.000,6086.000
6024.000,5900.000,6090.000
6002.000,6000.000,6101.000
5907.000,5915.000,6047.000
5940.000,5910.000,5995.000
5917.000,5891.000,5946.000
5842.000,5886.000,5931.000
5823.000,5869.000,5965.000
5850.000,5839.000,5867.000
5868.000,5933.000,5890.000
5837.000,5826.000,5988.000
5894.000,5848.000,5919.000
5847.000,5843.000,5974.000
5806.000,5857.000,5889.000
5839.000,5812.000,5881.000
5819.000,5783.000,5956.000
5821.000,5809.000,5950.000
5862.000,5756.000,5836.000
5862.000,5770.000,5860.000
5842.000,5802.000,5934.000
5820.000,5807.000,5884.000
5911.000,5830.000,5879.000
5834.000,5843.000,5899.000
5842.000,5768.000,5859.000
5843.000,5737.000,5855.000
5746.000,5776.000,5864.000
5755.000,5770.000,5850.000
5809.000,5751.000,5784.000
5760.000,5783.000,5800.000
5777.000,5725.000,5838.000
5753.000,5730.000,5797.000
5710.000,5737.000,5793.000
5735.000,5715.000,5797.000
5748.000,5698.000,5751.000
5707.000,5735.000,5791.000
5745.000,5703.000,5729.000
5685.000,5692.000,5798.000
5648.000,5600.000,5732.000
5670.000,5683.000,5768.000
5635.000,5585.000,5747.000
5651.000,5684.000,5735.000
5675.000,5649.000,5700.000
5616.000,5603.000,5744.000
5642.000,5630.000,5653.000
5649.000,5641.000,5645.000
5542.000,5598.000,5702.000
5598.000,5541.000,5730.000
5575.000,5540.000,5583.000
5540.000,5553.000,5611.000
5560.000,5548.000,5631.000
5604.000,5616.000,5623.000
5614.000,5578.000,5646.000
5629.000,5577.000,5608.000
5618.000,5604.000,5689.000
5634.000,5643.000,5707.000
5591.000,5588.000,5656.000
5634.000,5543.000,5631.000
5601.000,5601.000,5612.000
5596.000,5570.000,5648.000
5638.000,5549.000,5604.000
5595.000,5550.000,5689.000
5647.000,5550.000,5669.000
5606.000,5539.000,5672.000
5585.000,5579.000,5684.000
5519.000,5576.000,5543.000
5524.000,5513.000,5586.000
5636.000,5481.000,5658.000
5570.000,5488.000,5587.000
5502.000,5486.000,5569.000
5473.000,5528.000,5557.000
5528.000,5504.000,5558.000
5477.000,5475.000,5518.000
5404.000,5449.000,5553.000
5475.000,5414.000,5495.000
5485.000,5399.000,5520.000
5433.000,5486.000,5541.000
5415.000,5391.000,5553.000
5365.000,5378.000,5504.000
5377.000,5387.000,5473.000
5380.000,5382.000,5458.000
5426.000,5332.000,5496.000
5298.000,5383.000,5452.000
5336.000,5342.000,5461.000
5378.000,5335.000,5499.000
5384.000,5344.000,5421.000
5323.000,5400.000,5436.000
5414.000,5374.000,5398.000
5398.000,5420.000,5467.000
5382.000,5354.000,5363.000
5452.000,5421.000,5432.000
5422.000,5457.000,5449.000
5491.000,5372.000,5443.000
5475.000,5414.000,5447.000
5482.000,5447.000,5484.000
5427.000,5460.000,5516.000
5496.000,5472.000,5519.000
5528.000,5418.000,5493.000
5549.000,5460.000,5517.000
5542.000,5421.000,5536.000
5526.000,5491.000,5584.000
5430.000,5474.000,5527.000
5512.000,5459.000,5513.000
5496.000,5404.000,5478.000
5470.000,5429.000,5486.000
5505.000,5462.000,5499.000
5445.000,5464.000,5469.000
5404.000,5372.000,5448.000
5439.000,5371.000,5479.000
5439.000,5406.000,5394.000
5416.000,5350.000,5389.000
5443.000,5344.000,5348.000
5429.000,5251.000,5365.000
5388.000,5360.000,5406.000
5294.000,5229.000,5334.000
5333.000,5297.000,5380.000
5334.000,5274.000,5352.000
5358.000,5270.000,5271.000
5278.000,5313.000,5234.000
5184.000,5281.000,5305.000
5287.000,5230.000,5253.000
5245.000,5236.000,5297.000
5218.000,5220.000,5241.000
5183.000,5222.000,5232.000
5137.000,5138.000,5126.000
5207.000,5085.000,5199.000
5134.000,5091.000,5111.000
5110.000,5150.000,5167.000
5123.000,5029.000,5183.000
5122.000,5145.000,5156.000
5127.000,5056.000,5172.000
5057.000,5156.000,5103.000
5138.000,5029.000,5073.000
5000.000,5034.000,5072.000
5048.000,5083.000,5079.000
5070.000,5089.000,5059.000
5079.000,5067.000,5123.000
4996.000,5064.000,5146.000
5009.000,5022.000,5078.000
5022.000,5000.000,5029.000
5060.000,5001.000,5054.000
5020.000,4953.000,5089.000
4948.000,4969.000,5056.000
5025.000,5004.000,5040.000
4895.000,4941.000,5053.000
4934.000,4981.000,4997.000
4932.000,4998.000,4998.000
4890.000,4917.000,4924.000
4893.000,4942.000,4907.000
4926.000,4830.000,4946.000
4873.000,4859.000,4892.000
4872.000,4819.000,4891.000
4816.000,4842.000,4827.000
4802.000,4778.000,4808.000
4800.000,4731.000,4897.000
4751.000,4762.000,4769.000
4688.000,4771.000,4799.000
4697.000,4739.000,4788.000
4789.000,4755.000,4780.000
4766.000,4719.000,4745.000
4614.000,4662.000,4697.000
4660.000,4599.000,4742.000
4658.000,4675.000,4787.000
4675.000,4617.000,4724.000
4602.000,4638.000,4668.000
4622.000,4654.000,4724.000
4659.000,4612.000,4713.000
4592.000,4559.000,4639.000
4580.000,4620.000,4602.000
4610.000,4632.000,4661.000
4530.000,4537.000,4601.000
4525.000,4516.000,4639.000
4577.000,4536.000,4601.000
4549.000,4526.000,4592.000
4594.000,4567.000,4553.000
4568.000,4531.000,4538.000
4549.000,4562.000,4577.000
4513.000,4542.000,4559.000
4505.000,4559.000,4603.000
4483.000,4470.000,4590.000
4536.000,4457.000,4536.000
4552.000,4527.000,4614.000
4479.000,4507.000,4535.000
4489.000,4533.000,4544.000
4521.000,4527.000,4512.000
4458.000,4512.000,4509.000
4462.000,4461.000,4489.000
4465.000,4476.000,4535.000
4474.000,4487.000,4525.000
4505.000,4450.000,4515.000
4395.000,4431.000,4438.000
4420.000,4399.000,4428.000
4382.000,4391.000,4486.000
4413.000,4295.000,4428.000
4363.000,4341.000,4410.000
4322.000,4330.000,4378.000
4293.000,4323.000,4357.000
4326.000,4355.000,4332.000
4252.000,4258.000,4350.000
4237.000,4251.000,4295.000
4328.000,4284.000,4338.000
4264.000,4161.000,4254.000
4233.000,4175.000,4289.000
4248.000,4233.000,4281.000
4177.000,4174.000,4240.000
4186.000,4193.000,4235.000
4209.000,4200.000,4231.000
4119.000,4155.000,4229.000
4106.000,4138.000,4183.000
4153.000,4112.000,4157.000
4162.000,4058.000,4168.000
4121.000,4081.000,4164.000
4077.000,4107.000,4154.000
4104.000,4069.000,4103.000
4076.000,4042.000,4154.000
4085.000,4029.000,4079.000
4082.000,4078.000,4113.000
4007.000,4069.000,4082.000
4070.000,4069.000,4059.000
4069.000,4061.000,4101.000
4107.000,4054.000,4058.000
4022.000,4070.000,4089.000
3986.000,3987.000,4098.000
4071.000,4057.000,4039.000
4036.000,4108.000,3994.000
4048.000,4011.000,4022.000
3994.000,4047.000,4021.000
4022.000,4001.000,4011.000
4016.000,4026.000,4029.000
4009.000,4042.000,4017.000
3991.000,4055.000,4087.000
4026.000,3978.000,4044.000
4007.000,3965.000,4058.000
4002.000,3953.000,4025.000
4035.000,3941.000,3997.000
3983.000,3991.000,4035.000
3982.000,3931.000,3959.000
3942.000,3968.000,3928.000
3983.000,3942.000,3947.000
3961.000,3922.000,3932.000
3898.000,3916.000,3929.000
3866.000,3856.000,3921.000
3887.000,3933.000,3963.000
3928.000,3896.000,3914.000
3911.000,3866.000,3843.000
3920.000,3839.000,3927.000
3939.000,3892.000,3851.000
3906.000,3875.000,3840.000
3943.000,3879.000,3815.000
3905.000,3847.000,3863.000
4003.000,3928.000,3962.000
3926.000,3843.000,3884.000
3943.000,3869.000,3848.000
3959.000,3906.000,3839.000
4009.000,3969.000,3810.000
4016.000,3935.000,3895.000
4023.000,3956.000,3882.000
4007.000,3957.000,3852.000
4057.000,3929.000,3839.000
4110.000,3941.000,3864.000
4088.000,3978.000,3915.000
4099.000,4074.000,3849.000
4160.000,4072.000,3904.000
4174.000,4038.000,3929.000
4185.000,4046.000,3905.000
4266.000,4105.000,3956.000
4331.000,4049.000,3941.000
4242.000,4076.000,3979.000
4225.000,4069.000,3933.000
4219.000,4085.000,3885.000
4224.000,4031.000,3904.000
4178.000,4089.000,3893.000
4090.000,3999.000,3895.000
4128.000,3964.000,3847.000
4029.000,4004.000,3823.000
4032.000,3931.000,3836.000
3975.000,3908.000,3744.000
3996.000,3875.000,3817.000
3951.000,3915.000,3765.000
3877.000,3831.000,3751.000
3841.000,3748.000,3675.000
3837.000,3746.000,3721.000
3755.000,3718.000,3648.000
3837.000,3737.000,3712.000
3720.000,3716.000,3644.000
3704.000,3645.000,3627.000
3662.000,3599.000,3651.000
3626.000,3584.000,3636.000
3575.000,3610.000,3522.000
3559.000,3552.000,3555.000
3542.000,3511.000,3539.000
3556.000,3522.000,3539.000
3534.000,3510.000,3500.000
3531.000,3454.000,3503.000
3507.000,3492.000,3493.000
3457.000,3483.000,3416.000
3431.000,3455.000,3423.000
3478.000,3461.000,3484.000
3471.000,3400.000,3476.000
3463.000,3412.000,3491.000
3439.000,3436.000,3425.000
3432.000,3420.000,3407.000
3438.000,3422.000,3416.000
3472.000,3438.000,3425.000
3453.000,3433.000,3414.000
3397.000,3378.000,3395.000
3409.000,3427.000,3424.000
3429.000,3423.000,3442.000
3505.000,3430.000,3402.000
3427.000,3418.000,3460.000
3484.000,3461.000,3478.000
3426.000,3466.000,3508.000
3437.000,3422.000,3506.000
3460.000,3397.000,3450.000
3432.000,3463.000,3476.000
3417.000,3448.000,3446.000
3381.000,3413.000,3482.000
3411.000,3432.000,3383.000
3407.000,3428.000,3467.000
3474.000,3443.000,3419.000
3427.000,3384.000,3412.000
3414.000,3385.000,3367.000
3372.000,3395.000,3399.000
3346.000,3339.000,3401.000
3346.000,3381.000,3367.000
3379.000,3380.000,3335.000
3324.000,3355.000,3349.000
3328.000,3331.000,3320.000
3299.000,3252.000,3314.000
3342.000,3303.000,3307.000
3286.000,3280.000,3302.000
3343.000,3285.000,3277.000
3296.000,3263.000,3306.000
3330.000,3222.000,3332.000
3319.000,3316.000,3337.000
3301.000,3310.000,3308.000
3306.000,3308.000,3292.000
3287.000,3302.000,3354.000
3300.000,3326.000,3352.000
3331.000,3306.000,3337.000
3349.000,3334.000,3364.000
3328.000,3329.000,3362.000
3306.000,3298.000,3377.000
3312.000,3276.000,3287.000
3358.000,3290.000,3306.000
3322.000,3314.000,3382.000
3323.000,3257.000,3407.000
3302.000,3318.000,3333.000
3327.000,3264.000,3288.000
3271.000,3315.000,3284.000
3281.000,3321.000,3375.000
3274.000,3279.000,3309.000
3299.000,3285.000,3305.000
3289.000,3263.000,3351.000
3266.000,3304.000,3319.000
3299.000,3307.000,3231.000
3280.000,3220.000,3280.000
3249.000,3210.000,3238.000
3258.000,3251.000,3203.000
3195.000,3188.000,3259.000
3242.000,3208.000,3234.000
3211.000,3186.000,3203.000
3178.000,3203.000,3243.000
3187.000,3187.000,3191.000
3176.000,3133.000,3178.000
3202.000,3147.000,3148.000
3183.000,3131.000,3179.000
3141.000,3114.000,3192.000
3186.000,3113.000,3168.000
3184.000,3128.000,3178.000
3163.000,3121.000,3219.000
3165.000,3147.000,3179.000
3165.000,3130.000,3194.000
3180.000,3120.000,3202.000
3151.000,3130.000,3156.000
3144.000,3183.000,3172.000
3150.000,3186.000,3209.000
3185.000,3219.000,3202.000
3164.000,3149.000,3222.000
3158.000,3157.000,3231.000
3151.000,3176.000,3222.000
3164.000,3145.000,3180.000
3202.000,3179.000,3232.000
3233.000,3202.000,3173.000
3137.000,3149.000,3197.000
3132.000,3169.000,3158.000
3159.000,3189.000,3152.000
3128.000,3191.000,3184.000
3152.000,3169.000,3191.000
3132.000,3135.000,3183.000
3140.000,3137.000,3163.000
3183.000,3131.000,3175.000
3159.000,3128.000,3126.000
3127.000,3077.000,3132.000
3120.000,3050.000,3127.000
3060.000,3116.000,3131.000
3117.000,3083.000,3137.000
3073.000,3082.000,3134.000
3095.000,3055.000,3116.000
3089.000,3095.000,3041.000
3089.000,3035.000,3068.000
3073.000,2985.000,3099.000
3026.000,3035.000,3018.000
3015.000,3026.000,3055.000
3002.000,3025.000,3022.000
3057.000,3010.000,3072.000
3024.000,2981.000,3038.000
2980.000,3003.000,3054.000
2995.000,3039.000,3036.000
2937.000,2991.000,3027.000
3045.000,3002.000,3023.000
3009.000,3012.000,3024.000
3025.000,3018.000,3046.000
3028.000,2975.000,3030.000
3014.000,3035.000,2981.000
3030.000,3000.000,2985.000
2992.000,2999.000,3022.000
3014.000,3051.000,3067.000
3033.000,3055.000,3035.000
3032.000,3024.000,3072.000
3049.000,3025.000,3089.000
3059.000,3049.000,3021.000
3031.000,2990.000,3040.000
2992.000,2987.000,3065.000
3076.000,3069.000,3068.000
3047.000,3054.000,3064.000
3097.000,3019.000,3078.000
3048.000,3033.000,3061.000
3008.000,3011.000,3085.000
3044.000,3002.000,3055.000
3025.000,3008.000,3065.000
3006.000,3007.000,3061.000
3035.000,3049.000,3042.000
3038.000,2983.000,3047.000
3013.000,3037.000,3022.000
2972.000,3035.000,3022.000
3006.000,2993.000,3069.000
2990.000,2981.000,3006.000
2971.000,2963.000,3023.000
2996.000,2989.000,2993.000
2971.000,2931.000,2974.000
2965.000,2950.000,2951.000
2958.000,2912.000,2992.000
2920.000,2887.000,2928.000
2961.000,2900.000,2938.000
2928.000,2901.000,2916.000
2914.000,2891.000,2933.000
2877.000,2894.000,2876.000
2866.000,2856.000,2883.000
2906.000,2885.000,2948.000
2913.000,2848.000,2900.000
2919.000,2903.000,2940.000
2921.000,2943.000,2888.000
2951.000,2891.000,2935.000
2932.000,2861.000,2906.000
2858.000,2915.000,2963.000
2937.000,2881.000,2983.000
2976.000,2918.000,2967.000
2989.000,2941.000,2984.000
2932.000,2934.000,2973.000
2929.000,2948.000,2980.000
2948.000,2963.000,2959.000
2935.000,2905.000,2940.000
2918.000,2922.000,2974.000
2899.000,2952.000,3017.000
2923.000,2867.000,2963.000
2932.000,2954.000,2983.000
2928.000,2896.000,2910.000
2932.000,2907.000,2952.000
2965.000,2924.000,2917.000
2920.000,2910.000,2926.000
2911.000,2909.000,2945.000
2969.000,2907.000,2908.000
2891.000,2834.000,2890.000
2885.000,2842.000,2924.000
2893.000,2868.000,2867.000
2865.000,2852.000,2890.000
2831.000,2822.000,2905.000
2888.000,2849.000,2879.000
2838.000,2816.000,2849.000
2872.000,2818.000,2867.000
2878.000,2795.000,2847.000
2820.000,2836.000,2868.000
2876.000,2832.000,2852.000
2810.000,2859.000,2843.000
2850.000,2820.000,2826.000
2811.000,2790.000,2869.000
2826.000,2841.000,2869.000
2828.000,2847.000,2847.000
2862.000,2855.000,2852.000
2832.000,2813.000,2918.000
2865.000,2835.000,2857.000
2882.000,2823.000,2922.000
2883.000,2886.000,2861.000
2927.000,2905.000,2895.000
2916.000,2894.000,2887.000
2867.000,2825.000,2880.000
2874.000,2855.000,2900.000
2886.000,2888.000,2879.000
2856.000,2850.000,2877.000
2857.000,2852.000,2903.000
2816.000,2841.000,2854.000
2891.000,2829.000,2883.000
2802.000,2825.000,2899.000
2859.000,2834.000,2848.000
2859.000,2831.000,2846.000
2801.000,2833.000,2851.000
2790.000,2778.000,2841.000
2786.000,2779.000,2855.000
2794.000,2772.000,2809.000
2783.000,2745.000,2817.000
2805.000,2754.000,2825.000
2787.000,2745.000,2776.000
2764.000,2774.000,2780.000
2730.000,2769.000,2787.000
2726.000,2722.000,2796.000
2756.000,2707.000,2749.000
2719.000,2710.000,2761.000
2759.000,2705.000,2729.000
2744.000,2696.000,2759.000
2730.000,2695.000,2748.000
2699.000,2719.000,2783.000
2718.000,2707.000,2770.000
2703.000,2751.000,2748.000
2722.000,2726.000,2740.000
2717.000,2732.000,2807.000
2750.000,2737.000,2766.000
2745.000,2717.000,2735.000
2751.000,2733.000,2752.000
2743.000,2720.000,2753.000
2730.000,2738.000,2737.000
2758.000,2731.000,2757.000
2698.000,2710.000,2737.000
2747.000,2773.000,2791.000
2764.000,2715.000,2769.000
2746.000,2734.000,2748.000
2762.000,2703.000,2706.000
2715.000,2712.000,2766.000
2714.000,2720.000,2723.000
2692.000,2752.000,2777.000
2690.000,2720.000,2741.000
2723.000,2731.000,2739.000
2666.000,2676.000,2723.000
2690.000,2659.000,2702.000
2725.000,2702.000,2725.000
2644.000,2662.000,2699.000
2657.000,2635.000,2694.000
2620.000,2669.000,2700.000
2619.000,2643.000,2697.000
2627.000,2640.000,2655.000
2618.000,2607.000,2657.000
2655.000,2608.000,2607.000
2634.000,2603.000,2630.000
2615.000,2643.000,2646.000
2595.000,2568.000,2605.000
2572.000,2608.000,2601.000
2554.000,2583.000,2597.000
2556.000,2584.000,2628.000
2571.000,2543.000,2579.000
2579.000,2551.000,2576.000
2551.000,2504.000,2546.000
2573.000,2547.000,2587.000
2556.000,2550.000,2554.000
2573.000,2532.000,2521.000
2534.000,2531.000,2593.000
2532.000,2495.000,2523.000
2543.000,2503.000,2558.000
2521.000,2529.000,2516.000
2538.000,2494.000,2548.000
2491.000,2515.000,2554.000
2496.000,2543.000,2561.000
2529.000,2532.000,2581.000
2544.000,2523.000,2601.000
2520.000,2539.000,2542.000
2546.000,2516.000,2563.000
2549.000,2522.000,2586.000
2557.000,2546.000,2550.000
2543.000,2511.000,2513.000
2535.000,2541.000,2575.000
2540.000,2502.000,2553.000
2535.000,2501.000,2509.000
2504.000,2517.000,2551.000
2523.000,2471.000,2518.000
2499.000,2504.000,2535.000
2508.000,2507.000,2534.000
2457.000,2498.000,2549.000
2486.000,2424.000,2503.000
2513.000,2509.000,2519.000
2506.000,2461.000,2504.000
2452.000,2466.000,2497.000
2490.000,2502.000,2493.000
2438.000,2414.000,2510.000
2450.000,2435.000,2413.000
2439.000,2427.000,2477.000
2486.000,2440.000,2443.000
2444.000,2422.000,2483.000
2415.000,2396.000,2417.000
2397.000,2382.000,2424.000
2382.000,2397.000,2401.000
2412.000,2386.000,2424.000
2402.000,2412.000,2427.000
2356.000,2374.000,2397.000
2366.000,2372.000,2398.000
2381.000,2406.000,2372.000
2375.000,2355.000,2365.000
2371.000,2322.000,2384.000
2354.000,2337.000,2359.000
2337.000,2302.000,2388.000
2345.000,2348.000,2348.000
2283.000,2290.000,2376.000
2311.000,2336.000,2342.000
2324.000,2320.000,2335.000
2340.000,2358.000,2386.000
2298.000,2315.000,2353.000
2310.000,2348.000,2355.000
2331.000,2341.000,2354.000
2354.000,2349.000,2337.000
2312.000,2335.000,2327.000
2333.000,2318.000,2336.000
2373.000,2359.000,2370.000
2343.000,2335.000,2331.000
2339.000,2351.000,2376.000
2333.000,2295.000,2330.000
2350.000,2341.000,2343.000
2305.000,2347.000,2315.000
2346.000,2292.000,2362.000
2340.000,2323.000,2337.000
2323.000,2301.000,2321.000
2323.000,2284.000,2309.000
2284.000,2290.000,2338.000
2309.000,2311.000,2342.000
2283.000,2276.000,2288.000
2268.000,2265.000,2276.000
2276.000,2303.000,2287.000
2256.000,2248.000,2253.000
2275.000,2261.000,2264.000
2269.000,2254.000,2279.000
2251.000,2230.000,2284.000
2237.000,2292.000,2284.000
2226.000,2251.000,2232.000
2216.000,2211.000,2271.000
2242.000,2218.000,2228.000
2176.000,2177.000,2238.000
2190.000,2178.000,2187.000
2172.000,2198.000,2222.000
2184.000,2192.000,2224.000
2202.000,2170.000,2186.000
2155.000,2175.000,2199.000
2163.000,2172.000,2158.000
2151.000,2152.000,2151.000
2155.000,2135.000,2174.000
2147.000,2126.000,2177.000
2102.000,2134.000,2138.000
2115.000,2141.000,2156.000
2171.000,2138.000,2128.000
2142.000,2115.000,2138.000
2116.000,2100.000,2142.000
2126.000,2122.000,2135.000
2133.000,2112.000,2144.000
2132.000,2135.000,2151.000
2139.000,2091.000,2119.000
2094.000,2112.000,2108.000
2114.000,2106.000,2130.000
2127.000,2113.000,2114.000
2115.000,2108.000,2096.000
2107.000,2097.000,2096.000
2113.000,2092.000,2123.000
2088.000,2121.000,2121.000
2102.000,2114.000,2141.000
2117.000,2120.000,2136.000
2086.000,2104.000,2121.000
2118.000,2077.000,2112.000
2070.000,2074.000,2111.000
2095.000,2087.000,2107.000
2062.000,2086.000,2082.000
2084.000,2070.000,2058.000
2074.000,2088.000,2087.000
2100.000,2110.000,2116.000
2082.000,2052.000,2085.000
2055.000,2051.000,2090.000
2036.000,2062.000,2093.000
2062.000,2051.000,2060.000
2012.000,2012.000,2064.000
2014.000,2035.000,2038.000
2064.000,2047.000,2055.000
2011.000,2029.000,2066.000
2036.000,1996.000,2050.000
2002.000,2006.000,2010.000
2000.000,2036.000,2040.000
1991.000,2010.000,2007.000
1975.000,1995.000,2012.000
1953.000,1987.000,1978.000
2023.000,1970.000,1990.000
1974.000,1973.000,1995.000
1930.000,1953.000,1943.000
1963.000,1959.000,1991.000
1934.000,1956.000,1959.000
1956.000,1979.000,1968.000
1918.000,1918.000,1931.000
1932.000,1934.000,1942.000
1945.000,1931.000,1939.000
1939.000,1933.000,1961.000
1918.000,1916.000,1946.000
1897.000,1899.000,1928.000
1937.000,1895.000,1925.000
1900.000,1891.000,1923.000
1908.000,1882.000,1924.000
1916.000,1897.000,1943.000
1895.000,1889.000,1920.000
1897.000,1893.000,1932.000
1903.000,1886.000,1908.000
1891.000,1923.000,1892.000
1895.000,1920.000,1905.000
1896.000,1907.000,1928.000
1884.000,1888.000,1896.000
1898.000,1889.000,1932.000
1889.000,1888.000,1933.000
1874.000,1892.000,1897.000
1890.000,1879.000,1894.000
1896.000,1892.000,1907.000
1878.000,1865.000,1855.000
1847.000,1831.000,1863.000
1842.000,1859.000,1872.000
1859.000,1872.000,1851.000
1854.000,1838.000,1861.000
1833.000,1841.000,1860.000
1838.000,1846.000,1866.000
1841.000,1809.000,1859.000
1811.000,1825.000,1830.000
1836.000,1824.000,1850.000
1829.000,1802.000,1868.000
1816.000,1801.000,1814.000
1802.000,1796.000,1838.000
1794.000,1790.000,1813.000
1772.000,1797.000,1792.000
1795.000,1791.000,1798.000
1786.000,1780.000,1771.000
1794.000,1762.000,1770.000
1778.000,1782.000,1787.000
1759.000,1753.000,1756.000
