Focus Mode,Read Mode,Exposure Time (sec),Number of Frames,Start Y,End Y,Date,Time,Position (microns)
Single Acquisition,Spectrum,20.000000,3,105,125,2/11/2021,5:01:33 PM,-3494.980000,0.000000,225.410000,

1262.000,1254.000,1255.000
1258.000,1258.000,1261.000
1255.000,1252.000,1265.000
1262.000,1260.000,1258.000
1265.000,1258.000,1257.000
1259.000,1254.000,1259.000
1268.000,1265.000,1267.000
1256.000,1265.000,1266.000
1265.000,1262.000,1264.000
1260.000,1262.000,1261.000
1265.000,1267.000,1259.000
1269.000,1262.000,1267.000
1265.000,1265.000,1267.000
1255.000,1268.000,1269.000
1266.000,1271.000,1268.000
1259.000,1269.000,1274.000
1261.000,1267.000,1272.000
1270.000,1267.000,1269.000
1269.000,1275.000,1263.000
1267.000,1271.000,1266.000
1274.000,1272.000,1275.000
1280.000,1272.000,1274.000
1276.000,1277.000,1264.000
1271.000,1280.000,1280.000
1285.000,1278.000,1284.000
1282.000,1287.000,1282.000
1276.000,1289.000,1281.000
1274.000,1288.000,1280.000
1283.000,1286.000,1285.000
1277.000,1272.000,1289.000
1290.000,1291.000,1291.000
1300.000,1291.000,1287.000
1284.000,1280.000,1304.000
1304.000,1301.000,1299.000
1301.000,1303.000,1301.000
1296.000,1302.000,1298.000
1303.000,1311.000,1300.000
1306.000,1305.000,1300.000
1298.000,1309.000,1308.000
1306.000,1311.000,1318.000
1312.000,1314.000,1309.000
1307.000,1321.000,1319.000
1313.000,1323.000,1321.000
1321.000,1310.000,1318.000
1323.000,1332.000,1339.000
1341.000,1329.000,1334.000
1330.000,1335.000,1327.000
1337.000,1347.000,1340.000
1337.000,1345.000,1339.000
1340.000,1341.000,1342.000
1356.000,1352.000,1352.000
1359.000,1354.000,1358.000
1364.000,1371.000,1366.000
1372.000,1359.000,1368.000
1370.000,1380.000,1382.000
1377.000,1371.000,1387.000
1393.000,1383.000,1383.000
1392.000,1396.000,1391.000
1400.000,1386.000,1401.000
1410.000,1395.000,1394.000
1394.000,1395.000,1399.000
1389.000,1418.000,1400.000
1404.000,1407.000,1403.000
1404.000,1410.000,1403.000
1406.000,1414.000,1416.000
1412.000,1417.000,1409.000
1424.000,1408.000,1418.000
1427.000,1419.000,1443.000
1443.000,1433.000,1452.000
1443.000,1448.000,1443.000
1461.000,1449.000,1458.000
1464.000,1468.000,1471.000
1479.000,1466.000,1489.000
1512.000,1500.000,1503.000
1515.000,1518.000,1523.000
1527.000,1534.000,1516.000
1534.000,1548.000,1543.000
1548.000,1569.000,1557.000
1563.000,1562.000,1573.000
1569.000,1575.000,1573.000
1582.000,1568.000,1591.000
1629.000,1606.000,1600.000
1588.000,1606.000,1621.000
1609.000,1622.000,1603.000
1625.000,1606.000,1631.000
1626.000,1621.000,1634.000
1642.000,1653.000,1627.000
1652.000,1654.000,1635.000
1644.000,1656.000,1672.000
1684.000,1667.000,1680.000
1681.000,1687.000,1693.000
1716.000,1697.000,1729.000
1702.000,1707.000,1717.000
1740.000,1739.000,1746.000
1759.000,1747.000,1769.000
1771.000,1779.000,1794.000
1831.000,1838.000,1830.000
1852.000,1873.000,1868.000
1881.000,1944.000,1932.000
1987.000,1971.000,1978.000
2067.000,2031.000,2051.000
2155.000,2106.000,2120.000
2180.000,2193.000,2181.000
2251.000,2267.000,2252.000
2334.000,2307.000,2340.000
2356.000,2357.000,2374.000
2360.000,2410.000,2406.000
2451.000,2439.000,2446.000
2460.000,2454.000,2441.000
2433.000,2477.000,2494.000
2476.000,2501.000,2447.000
2505.000,2523.000,2495.000
2520.000,2520.000,2553.000
2575.000,2568.000,2543.000
2612.000,2592.000,2613.000
2677.000,2656.000,2674.000
2753.000,2749.000,2759.000
2885.000,2867.000,2887.000
3015.000,3017.000,3052.000
3359.000,3264.000,3331.000
3751.000,3701.000,3703.000
4495.000,4421.000,4508.000
6050.000,5927.000,6052.000
10371.000,10017.000,10498.000
23755.000,22626.000,24277.000
61715.000,61678.000,61708.000
62200.000,62195.000,62198.000
62110.000,62115.000,62109.000
62058.000,62052.000,62055.000
62062.000,62061.000,62064.000
62053.000,62054.000,62051.000
62032.000,62033.000,62040.000
62028.000,62031.000,62032.000
62035.000,62032.000,62037.000
62026.000,62029.000,62027.000
62023.000,62021.000,62023.000
62023.000,62028.000,62027.000
62024.000,62020.000,62026.000
62017.000,62024.000,62027.000
62022.000,62021.000,62026.000
62020.000,62021.000,62020.000
62018.000,62017.000,62026.000
62015.000,62021.000,62020.000
62017.000,62013.000,62022.000
62020.000,62017.000,62019.000
62015.000,62016.000,62023.000
62016.000,62016.000,62024.000
62023.000,62016.000,62021.000
62014.000,62017.000,62020.000
62016.000,62017.000,62020.000
62020.000,62022.000,62022.000
62020.000,62016.000,62023.000
62021.000,62022.000,62023.000
62017.000,62016.000,62019.000
62010.000,62018.000,62023.000
62016.000,62018.000,62021.000
62015.000,62018.000,62022.000
62011.000,62016.000,62020.000
62020.000,62018.000,62016.000
62013.000,62016.000,62016.000
62017.000,62019.000,62021.000
62019.000,62019.000,62019.000
62013.000,62015.000,62019.000
62015.000,62014.000,62024.000
62017.000,62019.000,62025.000
62016.000,62025.000,62017.000
62019.000,62016.000,62018.000
62018.000,62015.000,62014.000
62016.000,62016.000,62019.000
62018.000,62020.000,62023.000
62015.000,62015.000,62019.000
62015.000,62015.000,62021.000
62017.000,62023.000,62023.000
62019.000,62019.000,62029.000
62019.000,62022.000,62035.000
62031.000,62048.000,62054.000
62051.000,62043.000,50067.000
58489.000,1775.000,1650.000
1654.000,1579.000,1572.000
1556.000,1546.000,1526.000
1538.000,1536.000,1524.000
1515.000,1523.000,1509.000
1520.000,1514.000,1509.000
1500.000,1501.000,1510.000
1499.000,1508.000,1487.000
1487.000,1462.000,1480.000
1467.000,1468.000,1483.000
1446.000,1452.000,1458.000
1461.000,1460.000,1451.000
1441.000,1445.000,1435.000
1451.000,1432.000,1425.000
1431.000,1428.000,1439.000
1435.000,1439.000,1429.000
1422.000,1436.000,1433.000
1410.000,1434.000,1404.000
1411.000,1415.000,1433.000
1403.000,1407.000,1401.000
1415.000,1414.000,1394.000
1411.000,1424.000,1411.000
1407.000,1405.000,1396.000
1402.000,1393.000,1399.000
1398.000,1388.000,1407.000
1393.000,1397.000,1400.000
1395.000,1398.000,1388.000
1387.000,1389.000,1390.000
1379.000,1388.000,1379.000
1371.000,1375.000,1376.000
1382.000,1380.000,1377.000
1373.000,1380.000,1371.000
1387.000,1370.000,1363.000
1368.000,1368.000,1366.000
1371.000,1365.000,1375.000
1374.000,1366.000,1365.000
1358.000,1363.000,1361.000
1360.000,1362.000,1359.000
1358.000,1358.000,1355.000
1353.000,1351.000,1365.000
1342.000,1356.000,1345.000
1342.000,1357.000,1343.000
1342.000,1346.000,1359.000
1349.000,1345.000,1341.000
1346.000,1350.000,1342.000
1355.000,1332.000,1344.000
1332.000,1323.000,1333.000
1343.000,1342.000,1331.000
1342.000,1331.000,1339.000
1331.000,1340.000,1337.000
1334.000,1332.000,1320.000
1330.000,1337.000,1333.000
1328.000,1342.000,1338.000
1325.000,1325.000,1334.000
1337.000,1327.000,1335.000
1334.000,1330.000,1320.000
1336.000,1323.000,1319.000
1336.000,1332.000,1327.000
1318.000,1319.000,1320.000
1324.000,1326.000,1316.000
1321.000,1327.000,1319.000
1324.000,1317.000,1331.000
1321.000,1314.000,1311.000
1315.000,1322.000,1314.000
1311.000,1325.000,1316.000
1312.000,1314.000,1306.000
1313.000,1310.000,1303.000
1303.000,1312.000,1308.000
1315.000,1302.000,1323.000
1303.000,1295.000,1315.000
1310.000,1303.000,1306.000
1302.000,1309.000,1310.000
1304.000,1305.000,1304.000
1303.000,1300.000,1295.000
1302.000,1296.000,1305.000
1300.000,1299.000,1297.000
1306.000,1306.000,1304.000
1308.000,1300.000,1295.000
1299.000,1298.000,1293.000
1294.000,1295.000,1289.000
1294.000,1303.000,1291.000
1304.000,1302.000,1303.000
1294.000,1302.000,1294.000
1289.000,1293.000,1295.000
1301.000,1303.000,1287.000
1297.000,1295.000,1288.000
1299.000,1294.000,1291.000
1285.000,1294.000,1303.000
1294.000,1292.000,1283.000
1294.000,1284.000,1305.000
1298.000,1294.000,1304.000
1292.000,1290.000,1283.000
1288.000,1295.000,1285.000
1289.000,1288.000,1282.000
1300.000,1299.000,1287.000
1291.000,1288.000,1288.000
1293.000,1294.000,1280.000
1299.000,1291.000,1286.000
1301.000,1280.000,1288.000
1286.000,1280.000,1287.000
1288.000,1289.000,1290.000
1291.000,1279.000,1284.000
1289.000,1287.000,1288.000
1290.000,1287.000,1289.000
1287.000,1286.000,1293.000
1287.000,1288.000,1291.000
1301.000,1291.000,1295.000
1303.000,1301.000,1292.000
1293.000,1298.000,1287.000
1312.000,1291.000,1294.000
1304.000,1303.000,1302.000
1305.000,1296.000,1294.000
1295.000,1310.000,1294.000
1311.000,1308.000,1297.000
1313.000,1304.000,1308.000
1320.000,1318.000,1314.000
1328.000,1332.000,1326.000
1318.000,1329.000,1323.000
1326.000,1335.000,1336.000
1344.000,1334.000,1338.000
1368.000,1346.000,1363.000
1373.000,1371.000,1368.000
1370.000,1376.000,1371.000
1373.000,1390.000,1399.000
1414.000,1415.000,1402.000
1426.000,1427.000,1435.000
1468.000,1461.000,1461.000
1499.000,1509.000,1477.000
1544.000,1527.000,1521.000
1587.000,1583.000,1549.000
1631.000,1620.000,1632.000
1699.000,1718.000,1677.000
1779.000,1772.000,1757.000
1876.000,1850.000,1831.000
1943.000,1950.000,1925.000
2073.000,2069.000,2039.000
2181.000,2199.000,2189.000
2380.000,2379.000,2343.000
2534.000,2492.000,2467.000
2692.000,2669.000,2673.000
2886.000,2840.000,2837.000
3112.000,3058.000,3029.000
3301.000,3272.000,3248.000
3528.000,3458.000,3389.000
3707.000,3623.000,3632.000
3858.000,3784.000,3779.000
4115.000,4011.000,3901.000
4188.000,4142.000,4080.000
4279.000,4226.000,4219.000
4473.000,4368.000,4285.000
4495.000,4423.000,4397.000
4580.000,4485.000,4481.000
4662.000,4627.000,4457.000
4610.000,4645.000,4521.000
4705.000,4580.000,4521.000
4739.000,4579.000,4544.000
4652.000,4645.000,4601.000
4708.000,4616.000,4598.000
4670.000,4670.000,4605.000
4694.000,4629.000,4568.000
4718.000,4620.000,4525.000
4678.000,4601.000,4564.000
4694.000,4588.000,4587.000
4677.000,4629.000,4489.000
4725.000,4580.000,4501.000
4621.000,4516.000,4455.000
4682.000,4574.000,4460.000
4714.000,4578.000,4545.000
4641.000,4503.000,4504.000
4658.000,4605.000,4587.000
4593.000,4543.000,4477.000
4622.000,4553.000,4437.000
4686.000,4580.000,4511.000
4581.000,4551.000,4510.000
4579.000,4498.000,4450.000
4573.000,4634.000,4473.000
4569.000,4555.000,4445.000
4634.000,4572.000,4502.000
4616.000,4628.000,4520.000
4590.000,4596.000,4543.000
4620.000,4483.000,4507.000
4621.000,4549.000,4503.000
4627.000,4551.000,4530.000
4528.000,4611.000,4456.000
4651.000,4523.000,4472.000
4630.000,4523.000,4532.000
4630.000,4541.000,4445.000
4591.000,4614.000,4480.000
4557.000,4577.000,4534.000
4650.000,4548.000,4507.000
4570.000,4569.000,4480.000
4694.000,4487.000,4488.000
4654.000,4549.000,4423.000
4643.000,4564.000,4506.000
4673.000,4620.000,4535.000
4624.000,4569.000,4548.000
4645.000,4639.000,4539.000
4678.000,4591.000,4572.000
4662.000,4607.000,4531.000
4663.000,4622.000,4521.000
4710.000,4613.000,4585.000
4755.000,4656.000,4574.000
4691.000,4672.000,4631.000
4739.000,4644.000,4577.000
4835.000,4678.000,4619.000
4752.000,4633.000,4676.000
4686.000,4772.000,4632.000
4778.000,4656.000,4628.000
4830.000,4732.000,4622.000
4786.000,4756.000,4579.000
4767.000,4755.000,4672.000
4815.000,4697.000,4673.000
4749.000,4660.000,4652.000
4811.000,4763.000,4640.000
4852.000,4758.000,4721.000
4784.000,4707.000,4695.000
4913.000,4698.000,4738.000
4774.000,4741.000,4699.000
4843.000,4750.000,4652.000
4855.000,4750.000,4629.000
4805.000,4796.000,4747.000
4886.000,4773.000,4710.000
4935.000,4823.000,4713.000
4865.000,4785.000,4755.000
4893.000,4743.000,4765.000
4872.000,4815.000,4725.000
4892.000,4849.000,4663.000
4845.000,4788.000,4748.000
4885.000,4891.000,4690.000
4924.000,4868.000,4815.000
4978.000,4829.000,4796.000
4963.000,4907.000,4845.000
4981.000,4904.000,4782.000
5081.000,4936.000,4847.000
4988.000,4951.000,4835.000
5002.000,4910.000,4843.000
5028.000,4933.000,4889.000
5005.000,4976.000,4866.000
5004.000,4982.000,4858.000
5086.000,5020.000,4874.000
5035.000,4922.000,4902.000
5034.000,4947.000,4883.000
5037.000,4896.000,4811.000
5035.000,4986.000,4840.000
5079.000,4981.000,4993.000
5130.000,4924.000,4890.000
5025.000,4990.000,4887.000
5011.000,4939.000,4894.000
5050.000,4983.000,4888.000
5133.000,4989.000,4968.000
5043.000,4953.000,4965.000
5083.000,5002.000,4911.000
5075.000,5035.000,4924.000
5167.000,5083.000,4940.000
5168.000,5033.000,4970.000
5144.000,5065.000,4992.000
5140.000,5050.000,5028.000
5172.000,5112.000,5006.000
5227.000,5046.000,5010.000
5177.000,5129.000,5066.000
5234.000,5124.000,5047.000
5205.000,5103.000,5006.000
5200.000,5119.000,5015.000
5256.000,5145.000,5053.000
5262.000,5189.000,5163.000
5331.000,5228.000,5161.000
5287.000,5188.000,5171.000
5380.000,5195.000,5277.000
5384.000,5262.000,5243.000
5389.000,5323.000,5224.000
5531.000,5368.000,5360.000
5535.000,5446.000,5375.000
5607.000,5537.000,5456.000
5653.000,5578.000,5512.000
5680.000,5594.000,5564.000
5750.000,5673.000,5643.000
5811.000,5761.000,5630.000
5862.000,5836.000,5712.000
5896.000,5820.000,5738.000
5919.000,5864.000,5820.000
5939.000,5891.000,5783.000
6029.000,5894.000,5891.000
5927.000,5918.000,5787.000
5929.000,5877.000,5820.000
5939.000,5860.000,5796.000
5917.000,5767.000,5753.000
5845.000,5810.000,5704.000
5828.000,5748.000,5685.000
5738.000,5682.000,5648.000
5759.000,5681.000,5620.000
5658.000,5612.000,5546.000
5598.000,5557.000,5472.000
5603.000,5493.000,5443.000
5539.000,5457.000,5356.000
5505.000,5438.000,5334.000
5529.000,5374.000,5265.000
5434.000,5292.000,5306.000
5365.000,5372.000,5266.000
5375.000,5291.000,5277.000
5346.000,5238.000,5135.000
5305.000,5286.000,5173.000
5262.000,5211.000,5197.000
5248.000,5215.000,5193.000
5240.000,5193.000,5160.000
5217.000,5108.000,5128.000
5236.000,5210.000,5091.000
5167.000,5062.000,5049.000
5229.000,5133.000,5040.000
5275.000,5089.000,5157.000
5249.000,5100.000,5094.000
5198.000,5058.000,5044.000
5230.000,5044.000,5059.000
5163.000,5099.000,4984.000
5169.000,5081.000,5036.000
5161.000,5078.000,5046.000
5157.000,5132.000,4999.000
5137.000,5106.000,4998.000
5168.000,5098.000,5013.000
5227.000,5043.000,4997.000
5108.000,5124.000,4979.000
5259.000,5137.000,4990.000
5148.000,5130.000,5031.000
5227.000,5075.000,5024.000
5194.000,5084.000,5041.000
5225.000,5142.000,5051.000
5234.000,5068.000,5066.000
5167.000,5140.000,5026.000
5146.000,5144.000,4945.000
5238.000,5049.000,5057.000
5163.000,5177.000,5034.000
5134.000,5093.000,5072.000
5162.000,5116.000,5006.000
5179.000,5037.000,5004.000
5063.000,5040.000,4954.000
5016.000,5016.000,4892.000
4972.000,5005.000,4855.000
5078.000,4929.000,4882.000
5026.000,4951.000,4825.000
5090.000,4931.000,4868.000
5038.000,4898.000,4887.000
4947.000,4900.000,4786.000
4889.000,4826.000,4813.000
4975.000,4798.000,4804.000
4853.000,4818.000,4778.000
4918.000,4795.000,4764.000
4901.000,4849.000,4695.000
4866.000,4831.000,4780.000
4883.000,4738.000,4700.000
4896.000,4780.000,4732.000
4891.000,4811.000,4721.000
4863.000,4722.000,4708.000
4883.000,4750.000,4713.000
4853.000,4791.000,4618.000
4825.000,4773.000,4654.000
4838.000,4683.000,4716.000
4779.000,4769.000,4664.000
4826.000,4726.000,4708.000
4793.000,4736.000,4601.000
4830.000,4754.000,4624.000
4894.000,4677.000,4655.000
4798.000,4710.000,4627.000
4809.000,4695.000,4604.000
4736.000,4636.000,4569.000
4797.000,4710.000,4638.000
4733.000,4664.000,4575.000
4728.000,4692.000,4581.000
4766.000,4714.000,4594.000
4717.000,4648.000,4574.000
4739.000,4683.000,4643.000
4750.000,4652.000,4567.000
4743.000,4610.000,4549.000
4763.000,4643.000,4618.000
4687.000,4698.000,4639.000
4766.000,4777.000,4548.000
4693.000,4705.000,4625.000
4759.000,4691.000,4595.000
4772.000,4735.000,4576.000
4808.000,4697.000,4605.000
4761.000,4670.000,4593.000
4775.000,4685.000,4629.000
4763.000,4686.000,4605.000
4762.000,4666.000,4638.000
4708.000,4653.000,4604.000
4793.000,4658.000,4596.000
4760.000,4678.000,4626.000
4747.000,4683.000,4650.000
4781.000,4695.000,4604.000
4792.000,4706.000,4593.000
4764.000,4698.000,4661.000
4790.000,4719.000,4680.000
4806.000,4750.000,4674.000
4796.000,4706.000,4669.000
4816.000,4682.000,4640.000
4824.000,4767.000,4643.000
4836.000,4745.000,4683.000
4744.000,4681.000,4647.000
4848.000,4708.000,4633.000
4794.000,4688.000,4611.000
4819.000,4682.000,4584.000
4789.000,4710.000,4660.000
4821.000,4763.000,4631.000
4769.000,4717.000,4639.000
4805.000,4699.000,4640.000
4762.000,4688.000,4590.000
4746.000,4694.000,4673.000
4832.000,4706.000,4640.000
4748.000,4744.000,4654.000
4829.000,4675.000,4719.000
4812.000,4700.000,4659.000
4797.000,4706.000,4673.000
4807.000,4759.000,4682.000
4835.000,4775.000,4645.000
4871.000,4808.000,4667.000
4840.000,4758.000,4684.000
4783.000,4718.000,4598.000
4808.000,4786.000,4658.000
4827.000,4715.000,4602.000
4821.000,4701.000,4635.000
4783.000,4684.000,4613.000
4800.000,4668.000,4592.000
4791.000,4695.000,4641.000
4854.000,4610.000,4648.000
4783.000,4691.000,4592.000
4788.000,4638.000,4588.000
4793.000,4662.000,4537.000
4723.000,4638.000,4605.000
4742.000,4629.000,4610.000
4736.000,4710.000,4547.000
4809.000,4619.000,4595.000
4769.000,4614.000,4566.000
4772.000,4617.000,4572.000
4728.000,4682.000,4576.000
4717.000,4697.000,4580.000
4696.000,4638.000,4548.000
4674.000,4619.000,4546.000
4715.000,4545.000,4496.000
4727.000,4583.000,4545.000
4699.000,4648.000,4548.000
4724.000,4570.000,4577.000
4724.000,4644.000,4557.000
4698.000,4627.000,4567.000
4704.000,4660.000,4561.000
4725.000,4633.000,4565.000
4712.000,4581.000,4547.000
4669.000,4586.000,4581.000
4680.000,4689.000,4573.000
4697.000,4641.000,4569.000
4691.000,4655.000,4527.000
4723.000,4624.000,4539.000
4713.000,4631.000,4555.000
4743.000,4568.000,4541.000
4668.000,4633.000,4507.000
4701.000,4579.000,4490.000
4618.000,4617.000,4499.000
4624.000,4615.000,4490.000
4678.000,4568.000,4446.000
4678.000,4615.000,4512.000
4665.000,4616.000,4414.000
4679.000,4604.000,4448.000
4689.000,4537.000,4497.000
4694.000,4609.000,4499.000
4726.000,4592.000,4532.000
4695.000,4630.000,4535.000
4636.000,4582.000,4581.000
4700.000,4586.000,4525.000
4670.000,4660.000,4558.000
4697.000,4675.000,4546.000
4725.000,4599.000,4532.000
4693.000,4613.000,4566.000
4725.000,4555.000,4523.000
4660.000,4600.000,4492.000
4713.000,4536.000,4590.000
4694.000,4602.000,4507.000
4669.000,4658.000,4528.000
4733.000,4580.000,4593.000
4698.000,4609.000,4507.000
4651.000,4608.000,4498.000
4730.000,4615.000,4534.000
4734.000,4639.000,4477.000
4633.000,4621.000,4556.000
4681.000,4615.000,4567.000
4704.000,4660.000,4522.000
4654.000,4643.000,4547.000
4646.000,4616.000,4596.000
4751.000,4589.000,4565.000
4681.000,4561.000,4482.000
4649.000,4577.000,4551.000
4719.000,4583.000,4502.000
4683.000,4667.000,4496.000
4630.000,4569.000,4553.000
4648.000,4592.000,4522.000
4704.000,4550.000,4476.000
4614.000,4573.000,4556.000
4696.000,4605.000,4544.000
4647.000,4604.000,4556.000
4715.000,4553.000,4494.000
4690.000,4575.000,4486.000
4663.000,4631.000,4481.000
4691.000,4554.000,4509.000
4677.000,4551.000,4606.000
4673.000,4607.000,4510.000
4640.000,4653.000,4538.000
4726.000,4611.000,4554.000
4662.000,4627.000,4568.000
4664.000,4701.000,4509.000
4664.000,4591.000,4467.000
4677.000,4575.000,4546.000
4746.000,4513.000,4530.000
4678.000,4616.000,4559.000
4687.000,4607.000,4542.000
4701.000,4617.000,4574.000
4716.000,4594.000,4493.000
4666.000,4579.000,4557.000
4746.000,4570.000,4484.000
4727.000,4619.000,4564.000
4642.000,4564.000,4569.000
4702.000,4602.000,4472.000
4708.000,4576.000,4493.000
4619.000,4608.000,4568.000
4702.000,4623.000,4514.000
4711.000,4618.000,4525.000
4642.000,4602.000,4520.000
4670.000,4620.000,4554.000
4821.000,4654.000,4531.000
4688.000,4587.000,4538.000
4678.000,4570.000,4548.000
4701.000,4607.000,4546.000
4690.000,4613.000,4550.000
4707.000,4589.000,4522.000
4683.000,4561.000,4541.000
4694.000,4625.000,4576.000
4636.000,4601.000,4532.000
4708.000,4651.000,4534.000
4684.000,4608.000,4503.000
4728.000,4569.000,4489.000
4706.000,4621.000,4506.000
4696.000,4633.000,4563.000
4717.000,4592.000,4599.000
4699.000,4588.000,4541.000
4734.000,4592.000,4520.000
4662.000,4641.000,4573.000
4685.000,4648.000,4555.000
4683.000,4666.000,4540.000
4745.000,4624.000,4532.000
4724.000,4587.000,4529.000
4680.000,4555.000,4533.000
4675.000,4598.000,4568.000
4677.000,4653.000,4481.000
4694.000,4621.000,4529.000
4655.000,4624.000,4566.000
4729.000,4625.000,4549.000
4703.000,4671.000,4540.000
4729.000,4625.000,4532.000
4689.000,4658.000,4505.000
4719.000,4606.000,4566.000
4653.000,4607.000,4557.000
4695.000,4622.000,4525.000
4679.000,4593.000,4588.000
4642.000,4602.000,4522.000
4704.000,4658.000,4511.000
4677.000,4643.000,4536.000
4735.000,4602.000,4529.000
4758.000,4555.000,4568.000
4772.000,4618.000,4542.000
4679.000,4636.000,4501.000
4712.000,4651.000,4502.000
4666.000,4622.000,4555.000
4714.000,4619.000,4435.000
4744.000,4605.000,4578.000
4684.000,4639.000,4580.000
4685.000,4671.000,4673.000
4683.000,4668.000,4550.000
4758.000,4706.000,4574.000
4744.000,4674.000,4575.000
4714.000,4667.000,4600.000
4804.000,4618.000,4580.000
4760.000,4662.000,4606.000
4757.000,4645.000,4597.000
4721.000,4678.000,4601.000
4784.000,4626.000,4572.000
4740.000,4709.000,4615.000
4721.000,4674.000,4603.000
4796.000,4721.000,4611.000
4752.000,4712.000,4618.000
4719.000,4687.000,4617.000
4707.000,4688.000,4587.000
4729.000,4661.000,4605.000
4754.000,4624.000,4594.000
4788.000,4688.000,4621.000
4821.000,4641.000,4598.000
4771.000,4687.000,4591.000
4684.000,4674.000,4615.000
4782.000,4739.000,4668.000
4827.000,4828.000,4607.000
4747.000,4714.000,4608.000
4834.000,4720.000,4617.000
4819.000,4671.000,4612.000
4797.000,4716.000,4637.000
4847.000,4701.000,4753.000
4747.000,4699.000,4632.000
4825.000,4738.000,4621.000
4787.000,4739.000,4644.000
4809.000,4693.000,4652.000
4800.000,4772.000,4690.000
4822.000,4739.000,4696.000
4808.000,4715.000,4662.000
4832.000,4748.000,4718.000
4763.000,4769.000,4675.000
4827.000,4765.000,4709.000
4838.000,4770.000,4670.000
4846.000,4750.000,4740.000
4838.000,4815.000,4712.000
4884.000,4844.000,4792.000
4848.000,4762.000,4800.000
4886.000,4829.000,4718.000
4896.000,4791.000,4742.000
4894.000,4807.000,4748.000
4875.000,4854.000,4839.000
4893.000,4843.000,4732.000
4922.000,4858.000,4800.000
4885.000,4872.000,4772.000
4962.000,4839.000,4775.000
4876.000,4932.000,4846.000
4993.000,4917.000,4819.000
5007.000,4913.000,4866.000
5062.000,4945.000,4889.000
5064.000,5008.000,4907.000
5077.000,5020.000,4911.000
5172.000,5053.000,4988.000
5207.000,5132.000,5094.000
5303.000,5254.000,5066.000
5325.000,5269.000,5168.000
5432.000,5340.000,5340.000
5545.000,5423.000,5426.000
5570.000,5545.000,5467.000
5799.000,5696.000,5631.000
5909.000,5924.000,5834.000
6124.000,6116.000,6034.000
6465.000,6403.000,6354.000
6754.000,6679.000,6719.000
7291.000,7213.000,7253.000
7867.000,7799.000,7798.000
8493.000,8527.000,8517.000
9163.000,9123.000,9128.000
9859.000,9855.000,9931.000
10572.000,10587.000,10565.000
11176.000,11331.000,11309.000
11719.000,11876.000,11767.000
12112.000,12144.000,12092.000
12284.000,12281.000,12232.000
12287.000,12174.000,12208.000
11912.000,11949.000,11879.000
11544.000,11451.000,11345.000
10742.000,10688.000,10579.000
10145.000,9925.000,9873.000
9278.000,9170.000,9163.000
8627.000,8523.000,8412.000
7926.000,7807.000,7823.000
7272.000,7303.000,7223.000
6925.000,6880.000,6757.000
6470.000,6330.000,6314.000
6168.000,6025.000,6049.000
5867.000,5832.000,5752.000
5725.000,5607.000,5522.000
5544.000,5441.000,5300.000
5416.000,5367.000,5267.000
5330.000,5260.000,5151.000
5208.000,5179.000,5030.000
5218.000,5050.000,4955.000
5105.000,5057.000,4914.000
5045.000,4913.000,4894.000
5007.000,4941.000,4818.000
4955.000,4822.000,4823.000
4989.000,4819.000,4774.000
4879.000,4788.000,4739.000
4889.000,4774.000,4711.000
4823.000,4771.000,4721.000
4808.000,4735.000,4690.000
4852.000,4727.000,4717.000
4792.000,4657.000,4626.000
4795.000,4728.000,4647.000
4770.000,4718.000,4631.000
4684.000,4700.000,4598.000
4742.000,4671.000,4589.000
4728.000,4721.000,4578.000
4673.000,4640.000,4527.000
4693.000,4595.000,4533.000
4673.000,4637.000,4581.000
4722.000,4585.000,4547.000
4659.000,4615.000,4529.000
4633.000,4600.000,4591.000
4651.000,4618.000,4518.000
4699.000,4632.000,4530.000
4635.000,4457.000,4516.000
4644.000,4631.000,4488.000
4639.000,4530.000,4492.000
4643.000,4576.000,4480.000
4609.000,4528.000,4489.000
4631.000,4559.000,4542.000
4673.000,4516.000,4487.000
4654.000,4545.000,4452.000
4697.000,4612.000,4507.000
4666.000,4561.000,4479.000
4648.000,4509.000,4478.000
4608.000,4558.000,4472.000
4602.000,4551.000,4398.000
4679.000,4467.000,4481.000
4588.000,4510.000,4483.000
4622.000,4549.000,4457.000
4615.000,4534.000,4387.000
4547.000,4538.000,4412.000
4585.000,4513.000,4460.000
4582.000,4500.000,4453.000
4581.000,4531.000,4398.000
4619.000,4463.000,4402.000
4575.000,4534.000,4381.000
4557.000,4515.000,4444.000
4603.000,4476.000,4417.000
4607.000,4497.000,4448.000
4527.000,4432.000,4449.000
4534.000,4511.000,4496.000
4575.000,4427.000,4435.000
4499.000,4484.000,4389.000
4501.000,4420.000,4436.000
4548.000,4456.000,4431.000
4455.000,4404.000,4429.000
4555.000,4399.000,4406.000
4460.000,4435.000,4424.000
4512.000,4463.000,4400.000
4533.000,4482.000,4372.000
4565.000,4414.000,4368.000
4497.000,4429.000,4424.000
4484.000,4445.000,4424.000
4565.000,4428.000,4421.000
4513.000,4437.000,4421.000
4516.000,4487.000,4384.000
4516.000,4522.000,4414.000
4536.000,4503.000,4363.000
4539.000,4467.000,4376.000
4510.000,4450.000,4359.000
4476.000,4430.000,4353.000
4533.000,4461.000,4375.000
4518.000,4410.000,4362.000
4485.000,4476.000,4407.000
4568.000,4473.000,4392.000
4510.000,4415.000,4395.000
4500.000,4515.000,4373.000
4541.000,4404.000,4395.000
4531.000,4512.000,4357.000
4476.000,4456.000,4422.000
4474.000,4469.000,4348.000
4565.000,4469.000,4399.000
4552.000,4510.000,4413.000
4573.000,4470.000,4367.000
4553.000,4532.000,4457.000
4577.000,4484.000,4407.000
4640.000,4575.000,4484.000
4551.000,4521.000,4487.000
4546.000,4586.000,4494.000
4566.000,4550.000,4423.000
4571.000,4524.000,4488.000
4690.000,4541.000,4506.000
4566.000,4558.000,4457.000
4630.000,4578.000,4514.000
4676.000,4602.000,4500.000
4650.000,4572.000,4420.000
4620.000,4500.000,4483.000
4606.000,4537.000,4509.000
4605.000,4563.000,4536.000
4598.000,4553.000,4514.000
4622.000,4544.000,4492.000
4683.000,4573.000,4524.000
4652.000,4624.000,4490.000
4673.000,4619.000,4601.000
4685.000,4663.000,4530.000
4715.000,4643.000,4607.000
4768.000,4663.000,4617.000
4807.000,4716.000,4649.000
4829.000,4850.000,4673.000
4832.000,4818.000,4742.000
4859.000,4763.000,4726.000
4901.000,4880.000,4846.000
5019.000,4947.000,4851.000
5034.000,5017.000,4895.000
5106.000,5039.000,5010.000
5181.000,5049.000,5043.000
5291.000,5226.000,5122.000
5317.000,5257.000,5146.000
5383.000,5302.000,5243.000
5590.000,5492.000,5452.000
5657.000,5623.000,5560.000
5813.000,5722.000,5687.000
6010.000,5969.000,5895.000
6055.000,6076.000,6020.000
6247.000,6219.000,6130.000
6374.000,6297.000,6322.000
6459.000,6487.000,6433.000
6547.000,6509.000,6435.000
6587.000,6568.000,6493.000
6652.000,6604.000,6536.000
6675.000,6566.000,6473.000
6544.000,6464.000,6456.000
6495.000,6438.000,6366.000
6457.000,6282.000,6322.000
6236.000,6259.000,6158.000
6105.000,6082.000,6033.000
6044.000,5947.000,5914.000
5946.000,5856.000,5782.000
5847.000,5712.000,5718.000
5683.000,5548.000,5496.000
5554.000,5496.000,5410.000
5556.000,5434.000,5342.000
5403.000,5376.000,5283.000
5441.000,5309.000,5263.000
5292.000,5306.000,5197.000
5271.000,5251.000,5161.000
5326.000,5231.000,5223.000
5260.000,5218.000,5145.000
5304.000,5215.000,5249.000
5255.000,5267.000,5193.000
5285.000,5239.000,5204.000
5397.000,5334.000,5225.000
5355.000,5356.000,5254.000
5421.000,5422.000,5342.000
5513.000,5355.000,5344.000
5548.000,5534.000,5491.000
5595.000,5563.000,5509.000
5721.000,5585.000,5544.000
5657.000,5680.000,5577.000
5764.000,5711.000,5691.000
5879.000,5761.000,5665.000
5981.000,5947.000,5831.000
6037.000,5915.000,5918.000
6105.000,5913.000,5958.000
6074.000,6041.000,6081.000
6076.000,6137.000,6094.000
6102.000,6119.000,6079.000
6189.000,6121.000,6038.000
6143.000,6166.000,6028.000
6056.000,6031.000,6003.000
6002.000,6002.000,5946.000
6006.000,5885.000,5917.000
5787.000,5857.000,5763.000
5794.000,5673.000,5620.000
5714.000,5520.000,5503.000
5474.000,5382.000,5401.000
5463.000,5262.000,5274.000
5321.000,5140.000,5174.000
5179.000,5126.000,5063.000
5092.000,5041.000,4987.000
4984.000,4922.000,4905.000
4917.000,4934.000,4833.000
4848.000,4850.000,4759.000
4816.000,4787.000,4758.000
4773.000,4703.000,4678.000
4784.000,4678.000,4599.000
4677.000,4614.000,4541.000
4665.000,4645.000,4586.000
4625.000,4548.000,4508.000
4690.000,4524.000,4570.000
4615.000,4537.000,4578.000
4659.000,4519.000,4422.000
4633.000,4509.000,4427.000
4601.000,4490.000,4479.000
4547.000,4544.000,4516.000
4611.000,4472.000,4426.000
4527.000,4529.000,4458.000
4481.000,4490.000,4497.000
4598.000,4483.000,4430.000
4579.000,4529.000,4454.000
4614.000,4464.000,4480.000
4560.000,4462.000,4427.000
4488.000,4474.000,4473.000
4544.000,4482.000,4378.000
4489.000,4482.000,4412.000
4543.000,4410.000,4366.000
4433.000,4377.000,4235.000
4461.000,4370.000,4319.000
4407.000,4308.000,4301.000
4356.000,4272.000,4205.000
4395.000,4284.000,4280.000
4353.000,4257.000,4253.000
4330.000,4275.000,4158.000
4262.000,4247.000,4201.000
4251.000,4153.000,4154.000
4260.000,4137.000,4133.000
4190.000,4119.000,4103.000
4127.000,4128.000,4051.000
4156.000,4142.000,4052.000
4170.000,4111.000,4011.000
4202.000,4073.000,4052.000
4151.000,4073.000,3994.000
4111.000,4019.000,3948.000
4047.000,4017.000,3963.000
4085.000,3991.000,3966.000
4086.000,3973.000,3965.000
4101.000,4013.000,3975.000
4079.000,3975.000,4035.000
4037.000,3983.000,3927.000
4090.000,3995.000,3870.000
4067.000,4080.000,4012.000
4088.000,4018.000,4012.000
3996.000,4025.000,3911.000
3995.000,3968.000,3942.000
4092.000,4016.000,3928.000
3983.000,3923.000,3944.000
4066.000,3946.000,3937.000
3967.000,3922.000,3857.000
4010.000,3886.000,3886.000
3995.000,3914.000,3890.000
4019.000,3912.000,3861.000
4014.000,3882.000,3844.000
3941.000,3901.000,3883.000
3927.000,3869.000,3869.000
3952.000,3869.000,3807.000
3943.000,3832.000,3825.000
3898.000,3831.000,3794.000
3923.000,3757.000,3755.000
3870.000,3778.000,3714.000
3846.000,3843.000,3765.000
3863.000,3851.000,3805.000
3889.000,3853.000,3768.000
3879.000,3823.000,3814.000
3875.000,3782.000,3797.000
3866.000,3876.000,3870.000
3965.000,3853.000,3818.000
3878.000,3805.000,3787.000
3920.000,3835.000,3839.000
3902.000,3883.000,3795.000
3851.000,3803.000,3787.000
3845.000,3821.000,3783.000
3865.000,3816.000,3804.000
3849.000,3791.000,3803.000
3840.000,3801.000,3766.000
3823.000,3743.000,3818.000
3850.000,3871.000,3753.000
3854.000,3797.000,3709.000
3849.000,3743.000,3774.000
3868.000,3776.000,3739.000
3887.000,3799.000,3745.000
3847.000,3824.000,3725.000
3888.000,3768.000,3761.000
3839.000,3794.000,3815.000
3916.000,3763.000,3783.000
3870.000,3838.000,3781.000
3857.000,3799.000,3762.000
3906.000,3827.000,3841.000
3912.000,3793.000,3792.000
3927.000,3843.000,3779.000
3911.000,3825.000,3776.000
3840.000,3833.000,3767.000
3886.000,3827.000,3753.000
3900.000,3863.000,3755.000
3854.000,3788.000,3772.000
3880.000,3830.000,3750.000
3798.000,3844.000,3811.000
3841.000,3824.000,3791.000
3878.000,3790.000,3729.000
3845.000,3768.000,3724.000
3905.000,3799.000,3737.000
3879.000,3795.000,3794.000
3881.000,3842.000,3811.000
3906.000,3808.000,3799.000
3900.000,3876.000,3833.000
3898.000,3862.000,3827.000
3947.000,3889.000,3808.000
3868.000,3820.000,3797.000
3906.000,3798.000,3849.000
3887.000,3862.000,3758.000
3887.000,3865.000,3831.000
3888.000,3840.000,3775.000
3848.000,3763.000,3792.000
3955.000,3865.000,3784.000
3851.000,3829.000,3811.000
3951.000,3832.000,3780.000
3912.000,3865.000,3783.000
3940.000,3882.000,3801.000
3910.000,3931.000,3847.000
3989.000,3866.000,3850.000
3979.000,3858.000,3850.000
3964.000,3915.000,3873.000
3994.000,3917.000,3856.000
3926.000,3912.000,3905.000
3991.000,3922.000,3868.000
3915.000,3918.000,3928.000
4001.000,3927.000,3809.000
3959.000,3903.000,3830.000
3982.000,3919.000,3839.000
3942.000,3914.000,3878.000
3950.000,3950.000,3948.000
4018.000,3928.000,3933.000
3959.000,3990.000,3955.000
3964.000,4005.000,3955.000
4082.000,3986.000,3991.000
4009.000,4000.000,3919.000
4045.000,4024.000,3938.000
4106.000,4031.000,4009.000
4105.000,4031.000,3976.000
4083.000,4060.000,4026.000
4076.000,4024.000,3990.000
4077.000,3975.000,3982.000
4082.000,4017.000,4039.000
4150.000,4044.000,4025.000
4163.000,4058.000,4027.000
4190.000,4114.000,4051.000
4182.000,4130.000,4085.000
4227.000,4218.000,4199.000
4279.000,4300.000,4224.000
4341.000,4248.000,4215.000
4386.000,4304.000,4349.000
4464.000,4454.000,4398.000
4540.000,4414.000,4367.000
4610.000,4534.000,4492.000
4547.000,4546.000,4493.000
4648.000,4571.000,4533.000
4663.000,4576.000,4577.000
4646.000,4611.000,4571.000
4672.000,4585.000,4551.000
4737.000,4632.000,4599.000
4647.000,4631.000,4650.000
4670.000,4572.000,4553.000
4604.000,4588.000,4591.000
4647.000,4582.000,4524.000
4624.000,4574.000,4531.000
4487.000,4585.000,4466.000
4516.000,4406.000,4408.000
4491.000,4408.000,4408.000
4372.000,4389.000,4337.000
4403.000,4419.000,4310.000
4324.000,4340.000,4296.000
4318.000,4298.000,4175.000
4250.000,4232.000,4195.000
4291.000,4257.000,4250.000
4185.000,4198.000,4184.000
4205.000,4205.000,4089.000
4179.000,4137.000,4115.000
4088.000,4119.000,4046.000
4171.000,4087.000,4049.000
4139.000,4056.000,4044.000
3994.000,4011.000,4041.000
4051.000,4074.000,4066.000
4054.000,4040.000,3975.000
4061.000,3994.000,4002.000
4060.000,4040.000,3965.000
4081.000,4003.000,3940.000
4061.000,3976.000,3947.000
4026.000,4007.000,3967.000
4049.000,4012.000,4000.000
4025.000,3963.000,3954.000
4076.000,4117.000,4023.000
4117.000,4049.000,3995.000
4145.000,4066.000,3990.000
4031.000,3982.000,3986.000
4048.000,3987.000,3983.000
4117.000,4029.000,3958.000
4033.000,3982.000,3954.000
4046.000,4015.000,3955.000
4065.000,3960.000,3981.000
3974.000,3995.000,3935.000
4011.000,3954.000,3964.000
4014.000,3947.000,3872.000
3989.000,3956.000,3910.000
3980.000,3935.000,3940.000
3976.000,3944.000,3926.000
4013.000,3916.000,3882.000
3939.000,3916.000,3974.000
3969.000,3863.000,3946.000
3977.000,3911.000,3879.000
3943.000,3826.000,3866.000
3980.000,3905.000,3823.000
3979.000,3911.000,3861.000
3997.000,3889.000,3901.000
3963.000,3868.000,3837.000
3964.000,3929.000,3853.000
4008.000,3938.000,3855.000
3970.000,3946.000,3944.000
3990.000,3866.000,3919.000
3942.000,3993.000,3911.000
3998.000,3910.000,3864.000
3999.000,3933.000,3907.000
3942.000,3908.000,3883.000
4018.000,3939.000,3936.000
3983.000,3928.000,3898.000
3979.000,3907.000,3878.000
3940.000,3890.000,3854.000
3912.000,3824.000,3782.000
3923.000,3828.000,3820.000
3900.000,3887.000,3840.000
3907.000,3889.000,3841.000
3866.000,3889.000,3832.000
3918.000,3789.000,3805.000
3898.000,3825.000,3809.000
3915.000,3829.000,3856.000
3840.000,3825.000,3808.000
3906.000,3856.000,3813.000
3912.000,3802.000,3812.000
3914.000,3849.000,3832.000
3909.000,3858.000,3859.000
3891.000,3907.000,3818.000
3869.000,3918.000,3872.000
3927.000,3856.000,3808.000
3885.000,3881.000,3797.000
3948.000,3903.000,3833.000
3932.000,3884.000,3819.000
3954.000,3857.000,3896.000
3991.000,3842.000,3872.000
3931.000,3880.000,3867.000
3935.000,3843.000,3799.000
3940.000,3863.000,3843.000
3944.000,3919.000,3896.000
3955.000,3882.000,3849.000
3914.000,3876.000,3845.000
3886.000,3844.000,3919.000
3976.000,3869.000,3918.000
3923.000,3912.000,3877.000
3894.000,3922.000,3901.000
3983.000,3924.000,3857.000
3967.000,3933.000,3884.000
3979.000,4027.000,3891.000
3956.000,3974.000,3951.000
3943.000,3928.000,3962.000
3963.000,3883.000,3892.000
4021.000,3979.000,3974.000
4037.000,3961.000,3969.000
3995.000,3956.000,3961.000
3981.000,3999.000,3869.000
4000.000,3957.000,3938.000
4006.000,3940.000,3952.000
4025.000,4027.000,3969.000
4005.000,3997.000,3965.000
4030.000,3903.000,3902.000
3972.000,3931.000,3918.000
4007.000,3952.000,3895.000
3956.000,3969.000,3857.000
4036.000,4000.000,3867.000
3994.000,3980.000,3947.000
4022.000,4000.000,3918.000
3981.000,3999.000,3912.000
4003.000,4026.000,3923.000
4024.000,4030.000,3975.000
4065.000,3939.000,3964.000
4049.000,4053.000,4018.000
4093.000,4014.000,3956.000
4016.000,3973.000,3968.000
3979.000,3993.000,3979.000
4064.000,4068.000,3967.000
4027.000,4045.000,4013.000
4085.000,4038.000,3991.000
4045.000,4033.000,4015.000
4082.000,4032.000,4026.000
4092.000,4043.000,4000.000
4060.000,4058.000,4022.000
4030.000,4062.000,4016.000
4102.000,4043.000,4036.000
4108.000,4010.000,4050.000
4103.000,4104.000,4010.000
4143.000,4117.000,4027.000
4103.000,4057.000,4047.000
4061.000,4058.000,3964.000
4130.000,4052.000,4001.000
4114.000,4059.000,4051.000
4116.000,4075.000,4047.000
4076.000,4085.000,4022.000
4079.000,4064.000,4016.000
4139.000,4085.000,4024.000
4164.000,4048.000,3987.000
4119.000,4059.000,4046.000
4139.000,4104.000,4073.000
4111.000,4147.000,4050.000
4160.000,4085.000,4057.000
4178.000,4112.000,4092.000
4180.000,4099.000,4106.000
4157.000,4149.000,4130.000
4200.000,4179.000,4121.000
4259.000,4194.000,4185.000
4311.000,4188.000,4217.000
4312.000,4242.000,4221.000
4305.000,4251.000,4235.000
4279.000,4302.000,4295.000
4331.000,4359.000,4260.000
4343.000,4366.000,4294.000
4365.000,4345.000,4330.000
4422.000,4361.000,4350.000
4481.000,4448.000,4423.000
4540.000,4455.000,4456.000
4552.000,4533.000,4515.000
4652.000,4631.000,4578.000
4658.000,4645.000,4635.000
4710.000,4668.000,4733.000
4837.000,4857.000,4733.000
4931.000,4927.000,4902.000
4982.000,5004.000,4983.000
5093.000,5144.000,5120.000
5294.000,5271.000,5244.000
5385.000,5303.000,5388.000
5559.000,5488.000,5446.000
5628.000,5511.000,5558.000
5640.000,5589.000,5623.000
5651.000,5693.000,5646.000
5734.000,5751.000,5689.000
5701.000,5687.000,5707.000
5679.000,5649.000,5657.000
5620.000,5554.000,5549.000
5519.000,5483.000,5468.000
5336.000,5332.000,5318.000
5203.000,5242.000,5116.000
4985.000,5089.000,4990.000
4874.000,4885.000,4845.000
4731.000,4738.000,4710.000
4747.000,4669.000,4665.000
4522.000,4563.000,4560.000
4539.000,4470.000,4457.000
4410.000,4347.000,4330.000
4415.000,4353.000,4313.000
4290.000,4328.000,4286.000
4281.000,4199.000,4205.000
4253.000,4233.000,4194.000
4214.000,4133.000,4168.000
4225.000,4162.000,4188.000
4163.000,4173.000,4119.000
4103.000,4166.000,4104.000
4187.000,4122.000,4022.000
4100.000,4107.000,4116.000
4184.000,4182.000,4136.000
4142.000,4167.000,4135.000
4197.000,4184.000,4094.000
4169.000,4178.000,4189.000
4230.000,4170.000,4103.000
4210.000,4231.000,4165.000
4165.000,4194.000,4170.000
4211.000,4149.000,4139.000
4153.000,4118.000,4130.000
4122.000,4146.000,4062.000
4149.000,4133.000,4020.000
4085.000,4038.000,4045.000
4042.000,4025.000,4041.000
4024.000,3964.000,3926.000
3998.000,3963.000,3944.000
3947.000,3868.000,3862.000
3879.000,3899.000,3826.000
3843.000,3831.000,3802.000
3788.000,3752.000,3766.000
3791.000,3766.000,3736.000
3728.000,3702.000,3661.000
3719.000,3637.000,3706.000
3664.000,3608.000,3597.000
3620.000,3584.000,3628.000
3637.000,3642.000,3590.000
3628.000,3525.000,3574.000
3589.000,3511.000,3536.000
3574.000,3535.000,3520.000
3529.000,3507.000,3485.000
3493.000,3522.000,3463.000
3521.000,3517.000,3441.000
3533.000,3451.000,3463.000
3470.000,3447.000,3403.000
3424.000,3412.000,3445.000
3473.000,3442.000,3458.000
3439.000,3458.000,3419.000
3459.000,3424.000,3415.000
3472.000,3402.000,3370.000
3394.000,3363.000,3421.000
3467.000,3413.000,3441.000
3415.000,3438.000,3433.000
3403.000,3428.000,3403.000
3465.000,3397.000,3342.000
3416.000,3376.000,3336.000
3384.000,3327.000,3317.000
3363.000,3328.000,3317.000
3383.000,3286.000,3323.000
3394.000,3350.000,3349.000
3341.000,3303.000,3288.000
3348.000,3280.000,3300.000
3338.000,3299.000,3310.000
3325.000,3255.000,3297.000
3354.000,3241.000,3247.000
3327.000,3272.000,3227.000
3277.000,3271.000,3188.000
3254.000,3230.000,3220.000
3291.000,3207.000,3224.000
3230.000,3217.000,3224.000
3226.000,3244.000,3204.000
3255.000,3226.000,3160.000
3253.000,3176.000,3174.000
3184.000,3211.000,3140.000
3178.000,3181.000,3153.000
3178.000,3137.000,3103.000
3176.000,3138.000,3119.000
3132.000,3160.000,3136.000
3127.000,3119.000,3067.000
3114.000,3094.000,3089.000
3143.000,3077.000,3097.000
3098.000,3111.000,3085.000
3130.000,3092.000,3096.000
3073.000,3068.000,3019.000
3075.000,3102.000,3038.000
3137.000,3091.000,3051.000
3093.000,3063.000,3066.000
3083.000,3052.000,3026.000
3068.000,3101.000,3009.000
3098.000,3019.000,3062.000
3113.000,3049.000,3016.000
3099.000,3032.000,3081.000
3079.000,3049.000,2975.000
3076.000,3053.000,3003.000
3115.000,3051.000,2979.000
3087.000,3074.000,2991.000
3070.000,3047.000,3011.000
3044.000,3046.000,3006.000
3084.000,3038.000,3011.000
3015.000,3019.000,2994.000
3035.000,3003.000,3032.000
3102.000,3067.000,3022.000
3078.000,3009.000,3016.000
3057.000,2997.000,3025.000
3061.000,3041.000,3011.000
3010.000,3022.000,3005.000
3039.000,2995.000,2979.000
3009.000,2989.000,2974.000
3007.000,3008.000,2991.000
2979.000,3052.000,2958.000
3001.000,2960.000,2955.000
2997.000,2995.000,2947.000
3002.000,2961.000,2974.000
2952.000,2992.000,2970.000
2969.000,2931.000,2904.000
2977.000,2964.000,2969.000
2971.000,2929.000,2959.000
2938.000,2913.000,2892.000
2939.000,2936.000,2937.000
2947.000,2906.000,2886.000
2964.000,2917.000,2886.000
2957.000,2946.000,2908.000
2897.000,2884.000,2924.000
2917.000,2933.000,2868.000
2895.000,2919.000,2884.000
2927.000,2943.000,2929.000
2908.000,2858.000,2884.000
2921.000,2894.000,2853.000
2886.000,2883.000,2882.000
2924.000,2880.000,2866.000
2904.000,2843.000,2883.000
2921.000,2879.000,2848.000
2907.000,2918.000,2887.000
2916.000,2899.000,2877.000
2879.000,2919.000,2881.000
2931.000,2885.000,2918.000
2893.000,2894.000,2875.000
2976.000,2885.000,2903.000
2917.000,2949.000,2872.000
2910.000,2965.000,2889.000
2971.000,2940.000,2907.000
2958.000,2915.000,2879.000
2956.000,2927.000,2919.000
2910.000,2886.000,2902.000
2929.000,2929.000,2895.000
2946.000,2933.000,2898.000
2908.000,2879.000,2914.000
2926.000,2896.000,2927.000
2944.000,2886.000,2859.000
2964.000,2921.000,2906.000
2897.000,2881.000,2915.000
2897.000,2872.000,2879.000
2896.000,2845.000,2860.000
2900.000,2871.000,2874.000
2898.000,2862.000,2852.000
2888.000,2886.000,2823.000
2903.000,2865.000,2840.000
2902.000,2804.000,2820.000
2880.000,2881.000,2814.000
2850.000,2783.000,2825.000
2822.000,2822.000,2817.000
2844.000,2779.000,2801.000
2805.000,2812.000,2789.000
2834.000,2759.000,2760.000
2827.000,2791.000,2798.000
2799.000,2788.000,2747.000
2798.000,2861.000,2746.000
2800.000,2798.000,2770.000
2781.000,2753.000,2772.000
2775.000,2811.000,2773.000
2747.000,2761.000,2758.000
2758.000,2765.000,2771.000
2751.000,2718.000,2737.000
2759.000,2769.000,2755.000
2749.000,2748.000,2751.000
2783.000,2785.000,2740.000
2805.000,2729.000,2779.000
2757.000,2761.000,2712.000
2733.000,2793.000,2791.000
2791.000,2783.000,2747.000
2745.000,2775.000,2785.000
2792.000,2760.000,2784.000
2773.000,2762.000,2740.000
2772.000,2772.000,2727.000
2780.000,2794.000,2783.000
2784.000,2766.000,2729.000
2757.000,2775.000,2763.000
2824.000,2767.000,2735.000
2787.000,2742.000,2701.000
2769.000,2790.000,2741.000
2787.000,2784.000,2737.000
2762.000,2752.000,2723.000
2791.000,2751.000,2730.000
2732.000,2764.000,2681.000
2759.000,2701.000,2683.000
2771.000,2727.000,2726.000
2736.000,2750.000,2685.000
2708.000,2724.000,2673.000
2710.000,2710.000,2681.000
2734.000,2658.000,2595.000
2679.000,2646.000,2657.000
2679.000,2683.000,2648.000
2661.000,2676.000,2646.000
2691.000,2663.000,2643.000
2651.000,2638.000,2656.000
2664.000,2634.000,2658.000
2645.000,2638.000,2600.000
2675.000,2674.000,2635.000
2699.000,2634.000,2642.000
2686.000,2644.000,2620.000
2674.000,2663.000,2639.000
2677.000,2657.000,2663.000
2657.000,2635.000,2681.000
2681.000,2677.000,2647.000
2669.000,2649.000,2665.000
2667.000,2631.000,2665.000
2655.000,2680.000,2640.000
2657.000,2690.000,2663.000
2662.000,2625.000,2633.000
2676.000,2652.000,2639.000
2632.000,2667.000,2648.000
2659.000,2676.000,2615.000
2676.000,2653.000,2660.000
2659.000,2643.000,2623.000
2671.000,2620.000,2627.000
2612.000,2637.000,2617.000
2677.000,2581.000,2607.000
2658.000,2660.000,2609.000
2615.000,2606.000,2607.000
2575.000,2567.000,2589.000
2620.000,2600.000,2604.000
2609.000,2567.000,2542.000
2603.000,2596.000,2593.000
2593.000,2567.000,2546.000
2551.000,2554.000,2567.000
2587.000,2557.000,2550.000
2551.000,2521.000,2544.000
2573.000,2519.000,2531.000
2586.000,2523.000,2497.000
2540.000,2518.000,2522.000
2575.000,2556.000,2539.000
2566.000,2530.000,2495.000
2570.000,2564.000,2517.000
2579.000,2560.000,2520.000
2529.000,2553.000,2520.000
2587.000,2574.000,2544.000
2546.000,2526.000,2523.000
2557.000,2580.000,2508.000
2544.000,2572.000,2530.000
2562.000,2515.000,2543.000
2527.000,2551.000,2525.000
2551.000,2551.000,2493.000
2518.000,2564.000,2567.000
2548.000,2528.000,2516.000
2553.000,2533.000,2504.000
2596.000,2525.000,2552.000
2553.000,2579.000,2516.000
2518.000,2544.000,2497.000
2541.000,2536.000,2509.000
2519.000,2525.000,2530.000
2507.000,2542.000,2497.000
2488.000,2529.000,2469.000
2540.000,2513.000,2481.000
2558.000,2500.000,2489.000
2515.000,2507.000,2461.000
2515.000,2479.000,2476.000
2511.000,2471.000,2495.000
2503.000,2486.000,2488.000
2519.000,2453.000,2447.000
2519.000,2465.000,2412.000
2447.000,2451.000,2424.000
2433.000,2434.000,2448.000
2493.000,2412.000,2424.000
2466.000,2479.000,2396.000
2442.000,2464.000,2402.000
2455.000,2395.000,2381.000
2432.000,2392.000,2431.000
2443.000,2385.000,2398.000
2399.000,2400.000,2398.000
2458.000,2403.000,2383.000
2412.000,2372.000,2363.000
2426.000,2407.000,2402.000
2434.000,2413.000,2354.000
2409.000,2394.000,2385.000
2409.000,2409.000,2407.000
2433.000,2360.000,2372.000
2392.000,2397.000,2378.000
2404.000,2407.000,2403.000
2448.000,2430.000,2380.000
2391.000,2390.000,2402.000
2410.000,2420.000,2382.000
2420.000,2403.000,2373.000
2426.000,2415.000,2408.000
2403.000,2377.000,2407.000
2412.000,2410.000,2382.000
2397.000,2413.000,2359.000
2441.000,2379.000,2439.000
2384.000,2435.000,2394.000
2407.000,2387.000,2358.000
2429.000,2412.000,2412.000
2406.000,2394.000,2354.000
2415.000,2386.000,2376.000
2408.000,2375.000,2377.000
2414.000,2390.000,2399.000
2378.000,2361.000,2361.000
2393.000,2396.000,2370.000
2377.000,2371.000,2361.000
2379.000,2385.000,2351.000
2363.000,2356.000,2312.000
2350.000,2387.000,2322.000
2407.000,2343.000,2361.000
2358.000,2327.000,2322.000
2350.000,2306.000,2283.000
2342.000,2329.000,2293.000
2308.000,2315.000,2315.000
2335.000,2302.000,2248.000
2306.000,2330.000,2257.000
2311.000,2312.000,2307.000
2304.000,2265.000,2283.000
2287.000,2289.000,2252.000
2330.000,2245.000,2284.000
2307.000,2273.000,2255.000
2292.000,2299.000,2257.000
2287.000,2308.000,2287.000
2311.000,2290.000,2306.000
2345.000,2279.000,2285.000
2302.000,2319.000,2271.000
2342.000,2238.000,2284.000
2312.000,2286.000,2310.000
2303.000,2307.000,2307.000
2327.000,2272.000,2298.000
2305.000,2304.000,2281.000
2311.000,2291.000,2316.000
2311.000,2289.000,2282.000
2323.000,2292.000,2284.000
2295.000,2300.000,2310.000
2326.000,2294.000,2276.000
2312.000,2270.000,2276.000
2350.000,2284.000,2273.000
2319.000,2305.000,2279.000
2351.000,2313.000,2280.000
2308.000,2238.000,2259.000
2279.000,2245.000,2302.000
2324.000,2276.000,2279.000
2272.000,2245.000,2247.000
2256.000,2272.000,2262.000
2272.000,2263.000,2264.000
2267.000,2261.000,2232.000
2260.000,2238.000,2216.000
2243.000,2260.000,2231.000
2248.000,2250.000,2227.000
2251.000,2225.000,2238.000
2255.000,2201.000,2169.000
2229.000,2258.000,2200.000
2255.000,2238.000,2204.000
2251.000,2224.000,2209.000
2206.000,2202.000,2185.000
2276.000,2201.000,2194.000
2227.000,2228.000,2204.000
2259.000,2218.000,2212.000
2230.000,2215.000,2202.000
2262.000,2220.000,2188.000
2234.000,2214.000,2239.000
2270.000,2247.000,2184.000
2224.000,2253.000,2192.000
2231.000,2254.000,2240.000
2248.000,2223.000,2232.000
2191.000,2235.000,2240.000
2260.000,2237.000,2237.000
2255.000,2267.000,2229.000
2260.000,2259.000,2230.000
2265.000,2271.000,2176.000
2231.000,2232.000,2218.000
2243.000,2235.000,2235.000
2240.000,2249.000,2206.000
2239.000,2237.000,2173.000
2234.000,2252.000,2208.000
2240.000,2239.000,2196.000
2232.000,2227.000,2181.000
2222.000,2216.000,2185.000
2215.000,2217.000,2188.000
2197.000,2169.000,2192.000
2196.000,2170.000,2187.000
2185.000,2163.000,2170.000
2190.000,2171.000,2170.000
2181.000,2173.000,2158.000
2201.000,2196.000,2175.000
2172.000,2175.000,2152.000
2179.000,2155.000,2154.000
2174.000,2141.000,2117.000
2166.000,2150.000,2133.000
2157.000,2129.000,2145.000
2159.000,2130.000,2151.000
2194.000,2125.000,2134.000
2198.000,2141.000,2161.000
2167.000,2150.000,2129.000
2154.000,2151.000,2139.000
2128.000,2150.000,2109.000
2137.000,2109.000,2132.000
2156.000,2151.000,2119.000
2150.000,2140.000,2169.000
2167.000,2153.000,2140.000
2168.000,2138.000,2160.000
2167.000,2189.000,2151.000
2190.000,2136.000,2105.000
2185.000,2173.000,2133.000
2168.000,2166.000,2149.000
2152.000,2160.000,2135.000
2141.000,2137.000,2158.000
2172.000,2149.000,2166.000
2151.000,2137.000,2132.000
2178.000,2142.000,2083.000
2178.000,2141.000,2096.000
2166.000,2117.000,2150.000
2149.000,2141.000,2129.000
2132.000,2112.000,2111.000
2136.000,2134.000,2104.000
2168.000,2125.000,2116.000
2122.000,2118.000,2100.000
2113.000,2086.000,2094.000
2119.000,2062.000,2083.000
2116.000,2096.000,2090.000
2111.000,2060.000,2071.000
2109.000,2082.000,2066.000
2138.000,2099.000,2066.000
2095.000,2060.000,2079.000
2103.000,2071.000,2058.000
2099.000,2045.000,2072.000
2064.000,2074.000,2071.000
2074.000,2066.000,2035.000
2050.000,2075.000,2049.000
2056.000,2025.000,2037.000
2076.000,2008.000,2072.000
2038.000,2014.000,2003.000
2077.000,2057.000,2021.000
2049.000,2036.000,2024.000
2007.000,2067.000,2003.000
2042.000,2045.000,2023.000
2040.000,2004.000,2000.000
2084.000,2008.000,2009.000
2049.000,2047.000,1999.000
2025.000,2043.000,2016.000
2056.000,2040.000,1988.000
2061.000,2048.000,2018.000
2049.000,2020.000,2035.000
2066.000,2059.000,2009.000
2069.000,2003.000,2023.000
2024.000,2026.000,2041.000
2057.000,2022.000,2022.000
2043.000,2035.000,2053.000
2037.000,2052.000,2016.000
2033.000,1991.000,2017.000
2028.000,2033.000,2001.000
2026.000,2006.000,2024.000
2033.000,2027.000,2000.000
2033.000,2021.000,2035.000
2020.000,2008.000,1995.000
2021.000,2009.000,2005.000
2017.000,2001.000,1995.000
2042.000,2009.000,2027.000
1993.000,2017.000,2002.000
2004.000,1998.000,1980.000
2034.000,1987.000,1989.000
2005.000,1994.000,2002.000
2001.000,1997.000,1954.000
1979.000,1991.000,1985.000
1993.000,1995.000,1959.000
2000.000,1994.000,1955.000
1983.000,1967.000,1968.000
1963.000,1968.000,1971.000
1969.000,1953.000,1970.000
1961.000,1948.000,1927.000
1951.000,1954.000,1954.000
1960.000,1967.000,1908.000
1955.000,1932.000,1969.000
1938.000,1943.000,1918.000
1957.000,1930.000,1937.000
1948.000,1942.000,1932.000
1919.000,1937.000,1917.000
1936.000,1942.000,1903.000
1933.000,1929.000,1906.000
1895.000,1931.000,1909.000
1914.000,1925.000,1907.000
1915.000,1903.000,1926.000
1925.000,1909.000,1908.000
1927.000,1904.000,1923.000
1919.000,1923.000,1912.000
1935.000,1934.000,1917.000
1925.000,1934.000,1906.000
1941.000,1901.000,1894.000
1940.000,1919.000,1903.000
1959.000,1938.000,1925.000
1956.000,1907.000,1918.000
1955.000,1922.000,1938.000
1958.000,1920.000,1919.000
1911.000,1928.000,1928.000
1893.000,1907.000,1893.000
1936.000,1920.000,1897.000
1920.000,1907.000,1912.000
1925.000,1908.000,1884.000
1922.000,1931.000,1902.000
1905.000,1903.000,1876.000
1894.000,1898.000,1900.000
1895.000,1897.000,1887.000
1891.000,1896.000,1896.000
1878.000,1876.000,1854.000
1890.000,1901.000,1873.000
1899.000,1860.000,1871.000
1891.000,1895.000,1866.000
1871.000,1861.000,1856.000
1903.000,1867.000,1887.000
1888.000,1888.000,1842.000
1888.000,1883.000,1879.000
1860.000,1852.000,1841.000
1871.000,1874.000,1851.000
1831.000,1822.000,1856.000
1840.000,1843.000,1835.000
1852.000,1826.000,1829.000
1842.000,1844.000,1808.000
1843.000,1831.000,1856.000
1822.000,1817.000,1815.000
1804.000,1831.000,1799.000
1796.000,1797.000,1834.000
1818.000,1815.000,1816.000
1794.000,1833.000,1809.000
1786.000,1792.000,1820.000
1814.000,1777.000,1821.000
1805.000,1792.000,1784.000
1807.000,1802.000,1793.000
1797.000,1795.000,1797.000
1802.000,1813.000,1777.000
1823.000,1769.000,1789.000
1783.000,1772.000,1816.000
1813.000,1784.000,1782.000
1819.000,1783.000,1782.000
1816.000,1790.000,1788.000
1763.000,1802.000,1771.000
1783.000,1801.000,1753.000
1807.000,1806.000,1787.000
1803.000,1813.000,1779.000
1785.000,1786.000,1779.000
1781.000,1808.000,1775.000
1803.000,1778.000,1781.000
1788.000,1754.000,1781.000
1787.000,1811.000,1770.000
1789.000,1786.000,1756.000
1777.000,1767.000,1756.000
1784.000,1760.000,1761.000
1779.000,1794.000,1765.000
1778.000,1765.000,1753.000
1787.000,1772.000,1748.000
1768.000,1783.000,1752.000
1755.000,1778.000,1764.000
1762.000,1786.000,1745.000
1779.000,1774.000,1770.000
1763.000,1742.000,1736.000
1744.000,1733.000,1742.000
1740.000,1744.000,1759.000
1766.000,1755.000,1727.000
1727.000,1756.000,1729.000
1718.000,1723.000,1733.000
1716.000,1720.000,1712.000
1737.000,1725.000,1704.000
1721.000,1718.000,1710.000
1723.000,1721.000,1693.000
1719.000,1694.000,1685.000
1696.000,1695.000,1688.000
1722.000,1712.000,1675.000
1691.000,1692.000,1691.000
1698.000,1696.000,1697.000
1669.000,1687.000,1674.000
1708.000,1676.000,1675.000
1676.000,1681.000,1698.000
1689.000,1671.000,1663.000
1687.000,1690.000,1683.000
1678.000,1675.000,1667.000
1679.000,1639.000,1660.000
1678.000,1654.000,1686.000
1666.000,1685.000,1681.000
1657.000,1659.000,1670.000
1657.000,1671.000,1664.000
1688.000,1659.000,1656.000
1662.000,1659.000,1664.000
1659.000,1674.000,1662.000
1688.000,1672.000,1652.000
1667.000,1668.000,1657.000
1661.000,1658.000,1661.000
1667.000,1680.000,1640.000
1662.000,1663.000,1656.000
1657.000,1673.000,1641.000
1640.000,1646.000,1662.000
1664.000,1683.000,1675.000
1655.000,1644.000,1640.000
1654.000,1640.000,1650.000
1659.000,1628.000,1637.000
1661.000,1615.000,1642.000
1675.000,1619.000,1632.000
1629.000,1631.000,1619.000
1643.000,1636.000,1609.000
1627.000,1609.000,1626.000
1632.000,1610.000,1618.000
1619.000,1617.000,1618.000
1613.000,1599.000,1618.000
1623.000,1606.000,1597.000
1627.000,1623.000,1620.000
1594.000,1619.000,1622.000
1585.000,1621.000,1589.000
1610.000,1597.000,1589.000
1589.000,1576.000,1597.000
1606.000,1584.000,1575.000
1580.000,1562.000,1539.000
1566.000,1576.000,1582.000
