Focus Mode,Read Mode,Exposure Time (sec),Number of Frames,Start Y,End Y,Date,Time,Position (microns)
Single Acquisition,Spectrum,20.000000,3,105,125,2/11/2021,4:54:59 PM,0.000000,0.000000,200.010000,

1257.000,1261.000,1262.000
1255.000,1254.000,1256.000
1258.000,1267.000,1262.000
1255.000,1257.000,1259.000
1267.000,1259.000,1258.000
1257.000,1264.000,1263.000
1260.000,1255.000,1265.000
1265.000,1264.000,1256.000
1264.000,1254.000,1266.000
1258.000,1256.000,1266.000
1257.000,1267.000,1264.000
1258.000,1256.000,1270.000
1261.000,1259.000,1272.000
1256.000,1259.000,1266.000
1257.000,1267.000,1267.000
1261.000,1269.000,1271.000
1265.000,1264.000,1276.000
1266.000,1258.000,1265.000
1266.000,1267.000,1264.000
1267.000,1274.000,1270.000
1267.000,1268.000,1273.000
1273.000,1274.000,1271.000
1270.000,1273.000,1271.000
1275.000,1280.000,1286.000
1273.000,1275.000,1283.000
1280.000,1285.000,1287.000
1273.000,1283.000,1285.000
1272.000,1279.000,1282.000
1287.000,1285.000,1285.000
1281.000,1287.000,1288.000
1285.000,1281.000,1284.000
1287.000,1291.000,1297.000
1292.000,1295.000,1299.000
1290.000,1290.000,1289.000
1305.000,1292.000,1295.000
1300.000,1293.000,1304.000
1302.000,1295.000,1308.000
1292.000,1303.000,1313.000
1310.000,1312.000,1312.000
1305.000,1310.000,1302.000
1301.000,1299.000,1319.000
1319.000,1311.000,1315.000
1316.000,1317.000,1319.000
1316.000,1317.000,1329.000
1328.000,1331.000,1329.000
1328.000,1337.000,1336.000
1331.000,1331.000,1329.000
1329.000,1330.000,1348.000
1344.000,1341.000,1346.000
1343.000,1347.000,1348.000
1347.000,1341.000,1371.000
1364.000,1352.000,1356.000
1351.000,1358.000,1375.000
1359.000,1361.000,1384.000
1367.000,1359.000,1383.000
1375.000,1376.000,1388.000
1380.000,1387.000,1379.000
1386.000,1386.000,1391.000
1387.000,1385.000,1405.000
1380.000,1389.000,1400.000
1391.000,1391.000,1405.000
1378.000,1395.000,1405.000
1397.000,1400.000,1403.000
1387.000,1396.000,1405.000
1413.000,1396.000,1402.000
1397.000,1422.000,1419.000
1403.000,1415.000,1415.000
1409.000,1421.000,1420.000
1425.000,1428.000,1433.000
1433.000,1443.000,1445.000
1453.000,1449.000,1449.000
1456.000,1460.000,1462.000
1460.000,1469.000,1491.000
1477.000,1480.000,1492.000
1483.000,1493.000,1504.000
1488.000,1505.000,1532.000
1528.000,1507.000,1529.000
1530.000,1522.000,1545.000
1539.000,1536.000,1545.000
1542.000,1568.000,1571.000
1530.000,1551.000,1565.000
1548.000,1550.000,1561.000
1570.000,1585.000,1597.000
1579.000,1583.000,1575.000
1586.000,1601.000,1604.000
1593.000,1609.000,1610.000
1611.000,1579.000,1623.000
1633.000,1597.000,1609.000
1621.000,1616.000,1620.000
1639.000,1649.000,1635.000
1642.000,1637.000,1663.000
1649.000,1655.000,1663.000
1671.000,1674.000,1702.000
1695.000,1700.000,1698.000
1728.000,1730.000,1737.000
1753.000,1723.000,1716.000
1760.000,1753.000,1746.000
1802.000,1776.000,1805.000
1824.000,1849.000,1840.000
1904.000,1882.000,1912.000
1923.000,1938.000,1913.000
1987.000,2007.000,1995.000
2066.000,2073.000,2048.000
2109.000,2108.000,2125.000
2169.000,2154.000,2190.000
2207.000,2241.000,2222.000
2290.000,2246.000,2253.000
2292.000,2272.000,2268.000
2299.000,2269.000,2308.000
2307.000,2288.000,2300.000
2382.000,2325.000,2369.000
2369.000,2397.000,2339.000
2405.000,2402.000,2399.000
2409.000,2456.000,2431.000
2439.000,2510.000,2465.000
2540.000,2562.000,2575.000
2655.000,2625.000,2682.000
2780.000,2766.000,2759.000
2944.000,2918.000,2886.000
3165.000,3188.000,3128.000
3579.000,3575.000,3538.000
4215.000,4283.000,4227.000
5652.000,5691.000,5576.000
9311.000,9305.000,9133.000
20552.000,20637.000,19719.000
61703.000,61747.000,61675.000
62185.000,62197.000,62191.000
62106.000,62112.000,62107.000
62041.000,62041.000,62043.000
62051.000,62056.000,62046.000
62048.000,62056.000,62052.000
62027.000,62031.000,62027.000
62020.000,62028.000,62017.000
62025.000,62033.000,62033.000
62020.000,62022.000,62021.000
62014.000,62023.000,62019.000
62017.000,62016.000,62016.000
62018.000,62014.000,62016.000
62014.000,62016.000,62012.000
62008.000,62013.000,62016.000
62012.000,62014.000,62013.000
62011.000,62013.000,62012.000
62015.000,62012.000,62011.000
62006.000,62016.000,62013.000
62008.000,62015.000,62008.000
62011.000,62011.000,62004.000
62008.000,62008.000,62013.000
62011.000,62010.000,62007.000
62007.000,62011.000,62009.000
62010.000,62012.000,62005.000
62012.000,62015.000,62010.000
62010.000,62010.000,62000.000
62008.000,62009.000,62011.000
62010.000,62008.000,62008.000
62010.000,62012.000,62011.000
62011.000,62012.000,62010.000
62004.000,62013.000,62011.000
62010.000,62012.000,62008.000
62007.000,62010.000,62014.000
62014.000,62014.000,62003.000
62011.000,62012.000,62010.000
62005.000,62009.000,62008.000
62005.000,62012.000,62011.000
62005.000,62009.000,62010.000
62011.000,62012.000,62008.000
62010.000,62012.000,62016.000
62013.000,62010.000,62014.000
62009.000,62008.000,62007.000
62010.000,62011.000,62006.000
62013.000,62013.000,62014.000
62007.000,62012.000,62010.000
62008.000,62014.000,62010.000
62009.000,62014.000,62010.000
62014.000,62013.000,62011.000
62011.000,62016.000,62013.000
62017.000,62025.000,62013.000
62036.000,62045.000,62032.000
64745.000,65448.000,62056.000
1668.000,1682.000,6802.000
1559.000,1556.000,1571.000
1559.000,1544.000,1552.000
1527.000,1530.000,1523.000
1518.000,1523.000,1516.000
1496.000,1509.000,1523.000
1519.000,1516.000,1499.000
1491.000,1490.000,1488.000
1475.000,1486.000,1474.000
1461.000,1452.000,1462.000
1470.000,1468.000,1462.000
1451.000,1450.000,1461.000
1451.000,1455.000,1447.000
1454.000,1442.000,1442.000
1439.000,1436.000,1447.000
1421.000,1416.000,1438.000
1430.000,1421.000,1417.000
1415.000,1422.000,1421.000
1423.000,1408.000,1433.000
1413.000,1408.000,1400.000
1405.000,1398.000,1424.000
1426.000,1405.000,1413.000
1401.000,1396.000,1394.000
1391.000,1409.000,1419.000
1379.000,1397.000,1384.000
1394.000,1393.000,1393.000
1388.000,1378.000,1381.000
1392.000,1396.000,1394.000
1389.000,1381.000,1384.000
1384.000,1378.000,1387.000
1371.000,1376.000,1380.000
1374.000,1374.000,1356.000
1363.000,1382.000,1372.000
1371.000,1383.000,1382.000
1373.000,1358.000,1363.000
1361.000,1362.000,1367.000
1344.000,1367.000,1355.000
1367.000,1352.000,1363.000
1354.000,1356.000,1353.000
1358.000,1357.000,1369.000
1347.000,1349.000,1356.000
1337.000,1342.000,1348.000
1357.000,1346.000,1354.000
1347.000,1344.000,1340.000
1333.000,1347.000,1347.000
1331.000,1349.000,1339.000
1347.000,1336.000,1352.000
1337.000,1331.000,1328.000
1333.000,1341.000,1333.000
1346.000,1335.000,1333.000
1332.000,1335.000,1316.000
1327.000,1331.000,1331.000
1333.000,1326.000,1323.000
1323.000,1332.000,1329.000
1333.000,1334.000,1333.000
1326.000,1324.000,1340.000
1324.000,1332.000,1329.000
1324.000,1320.000,1333.000
1320.000,1324.000,1328.000
1312.000,1320.000,1325.000
1324.000,1327.000,1318.000
1317.000,1318.000,1310.000
1316.000,1325.000,1319.000
1319.000,1320.000,1314.000
1308.000,1309.000,1312.000
1313.000,1319.000,1311.000
1314.000,1320.000,1317.000
1312.000,1307.000,1307.000
1308.000,1307.000,1313.000
1295.000,1309.000,1314.000
1311.000,1315.000,1311.000
1306.000,1316.000,1311.000
1295.000,1302.000,1294.000
1298.000,1296.000,1312.000
1303.000,1307.000,1307.000
1301.000,1313.000,1307.000
1308.000,1300.000,1311.000
1307.000,1299.000,1303.000
1300.000,1311.000,1300.000
1290.000,1308.000,1305.000
1299.000,1303.000,1300.000
1301.000,1302.000,1304.000
1307.000,1294.000,1298.000
1298.000,1298.000,1301.000
1301.000,1293.000,1301.000
1313.000,1299.000,1315.000
1303.000,1307.000,1316.000
1292.000,1301.000,1297.000
1294.000,1303.000,1294.000
1300.000,1306.000,1299.000
1298.000,1299.000,1300.000
1296.000,1310.000,1293.000
1298.000,1286.000,1295.000
1301.000,1298.000,1295.000
1295.000,1288.000,1300.000
1293.000,1296.000,1298.000
1303.000,1299.000,1293.000
1307.000,1306.000,1295.000
1297.000,1303.000,1299.000
1290.000,1301.000,1297.000
1303.000,1300.000,1305.000
1296.000,1297.000,1303.000
1294.000,1303.000,1308.000
1310.000,1297.000,1303.000
1310.000,1308.000,1298.000
1304.000,1305.000,1305.000
1313.000,1302.000,1311.000
1314.000,1312.000,1320.000
1328.000,1316.000,1316.000
1333.000,1327.000,1319.000
1333.000,1326.000,1325.000
1340.000,1335.000,1339.000
1334.000,1343.000,1339.000
1353.000,1348.000,1351.000
1359.000,1364.000,1367.000
1374.000,1381.000,1372.000
1391.000,1376.000,1385.000
1403.000,1405.000,1401.000
1413.000,1406.000,1430.000
1454.000,1455.000,1457.000
1489.000,1477.000,1479.000
1507.000,1502.000,1510.000
1565.000,1551.000,1539.000
1605.000,1599.000,1578.000
1633.000,1643.000,1638.000
1708.000,1699.000,1709.000
1799.000,1797.000,1755.000
1900.000,1834.000,1829.000
1993.000,1949.000,1963.000
2109.000,2063.000,2092.000
2222.000,2259.000,2232.000
2427.000,2387.000,2395.000
2621.000,2551.000,2584.000
2832.000,2779.000,2801.000
3116.000,3122.000,3087.000
3450.000,3345.000,3358.000
3720.000,3639.000,3702.000
4109.000,4058.000,4074.000
4457.000,4472.000,4449.000
5020.000,4842.000,4854.000
5419.000,5330.000,5254.000
5930.000,5655.000,5757.000
6336.000,6172.000,6162.000
6735.000,6660.000,6657.000
7200.000,7039.000,7093.000
7587.000,7480.000,7467.000
7984.000,7791.000,7785.000
8190.000,8039.000,8085.000
8464.000,8330.000,8349.000
8686.000,8607.000,8562.000
8920.000,8702.000,8712.000
9021.000,8902.000,8884.000
9061.000,8864.000,8818.000
9175.000,8879.000,8848.000
9166.000,8921.000,8894.000
9219.000,8951.000,8993.000
9167.000,9051.000,9137.000
9251.000,8968.000,9061.000
9098.000,9051.000,9012.000
9085.000,8925.000,8953.000
9065.000,8913.000,8874.000
9053.000,8996.000,8922.000
9095.000,8965.000,8945.000
9178.000,8931.000,8905.000
9216.000,8911.000,8855.000
9126.000,9058.000,8962.000
9130.000,8992.000,8972.000
9181.000,8900.000,8974.000
9197.000,8956.000,9008.000
9126.000,8996.000,8951.000
9182.000,9022.000,8960.000
9149.000,8996.000,9016.000
9205.000,8954.000,9037.000
9134.000,9006.000,9016.000
9200.000,8998.000,9006.000
9149.000,9001.000,8878.000
9266.000,9040.000,9027.000
9267.000,9039.000,9033.000
9090.000,9075.000,8962.000
9138.000,8979.000,9009.000
9139.000,9060.000,9005.000
9250.000,9001.000,9060.000
9207.000,9035.000,9056.000
9223.000,9035.000,9007.000
9244.000,9051.000,9057.000
9306.000,9130.000,9037.000
9206.000,9073.000,9030.000
9202.000,9056.000,9016.000
9269.000,8970.000,8984.000
9258.000,9051.000,8958.000
9237.000,8980.000,9026.000
9219.000,8997.000,9048.000
9353.000,9156.000,9043.000
9396.000,9130.000,9055.000
9243.000,9111.000,9058.000
9423.000,9128.000,9098.000
9291.000,9154.000,9092.000
9348.000,9179.000,9155.000
9444.000,9132.000,9103.000
9368.000,9225.000,9091.000
9471.000,9258.000,9185.000
9535.000,9257.000,9267.000
9472.000,9268.000,9228.000
9586.000,9233.000,9248.000
9537.000,9358.000,9288.000
9614.000,9336.000,9177.000
9590.000,9355.000,9303.000
9538.000,9222.000,9269.000
9524.000,9378.000,9301.000
9717.000,9452.000,9307.000
9601.000,9388.000,9326.000
9581.000,9366.000,9304.000
9596.000,9446.000,9285.000
9664.000,9562.000,9315.000
9706.000,9402.000,9374.000
9675.000,9425.000,9363.000
9723.000,9468.000,9451.000
9761.000,9572.000,9326.000
9761.000,9557.000,9370.000
9862.000,9514.000,9523.000
9796.000,9508.000,9478.000
9780.000,9573.000,9420.000
9728.000,9588.000,9589.000
9920.000,9594.000,9450.000
9717.000,9567.000,9442.000
9656.000,9549.000,9409.000
9655.000,9492.000,9554.000
9820.000,9558.000,9465.000
9713.000,9621.000,9432.000
9757.000,9396.000,9508.000
9794.000,9694.000,9559.000
9809.000,9637.000,9482.000
9786.000,9621.000,9583.000
9750.000,9632.000,9528.000
9795.000,9590.000,9509.000
9842.000,9568.000,9560.000
9788.000,9565.000,9551.000
9752.000,9640.000,9468.000
9891.000,9751.000,9518.000
9809.000,9665.000,9526.000
9909.000,9709.000,9534.000
9789.000,9586.000,9526.000
9869.000,9577.000,9508.000
9921.000,9689.000,9538.000
9791.000,9654.000,9513.000
10003.000,9630.000,9545.000
9959.000,9732.000,9576.000
9983.000,9684.000,9602.000
9877.000,9674.000,9598.000
10078.000,9774.000,9695.000
10034.000,9700.000,9580.000
10009.000,9849.000,9714.000
9936.000,9777.000,9678.000
10023.000,9774.000,9737.000
10078.000,9886.000,9674.000
10044.000,9828.000,9737.000
10114.000,9972.000,9800.000
10057.000,9959.000,9883.000
10154.000,9888.000,9785.000
10032.000,9981.000,9792.000
10090.000,9891.000,9762.000
10210.000,9886.000,9785.000
10222.000,9869.000,9850.000
10112.000,9951.000,9805.000
10084.000,9864.000,9774.000
10224.000,9986.000,9791.000
10169.000,9921.000,9880.000
10210.000,9984.000,9870.000
10258.000,9961.000,9759.000
10244.000,9923.000,9701.000
10258.000,10061.000,9913.000
10133.000,10031.000,9960.000
10233.000,10011.000,9918.000
10306.000,10054.000,9851.000
10263.000,9982.000,9891.000
10230.000,10060.000,9854.000
10278.000,10029.000,9917.000
10210.000,10077.000,9849.000
10294.000,9987.000,9828.000
10251.000,9965.000,9848.000
10229.000,10018.000,9895.000
10174.000,10078.000,9850.000
10190.000,10002.000,9772.000
10282.000,10004.000,9891.000
10247.000,10036.000,9978.000
10091.000,9986.000,9815.000
10202.000,9998.000,9875.000
10188.000,10049.000,9960.000
10211.000,10002.000,9857.000
10309.000,10039.000,9979.000
10250.000,10075.000,9952.000
10206.000,10038.000,9890.000
10233.000,9999.000,9835.000
10284.000,10054.000,9983.000
10293.000,10065.000,9911.000
10345.000,10014.000,9971.000
10287.000,10039.000,9901.000
10262.000,10184.000,9945.000
10251.000,10168.000,9896.000
10302.000,9981.000,9971.000
10370.000,10126.000,9967.000
10282.000,10200.000,9940.000
10297.000,10099.000,9995.000
10274.000,9974.000,9888.000
10312.000,10000.000,9913.000
10250.000,10053.000,9993.000
10232.000,10000.000,9952.000
10289.000,10187.000,9955.000
10486.000,10031.000,9946.000
10370.000,10124.000,10100.000
10358.000,10038.000,10027.000
10331.000,10183.000,9973.000
10332.000,10146.000,9973.000
10372.000,10016.000,10005.000
10382.000,10172.000,9964.000
10353.000,10205.000,10127.000
10450.000,10228.000,10141.000
10445.000,10332.000,10107.000
10479.000,10287.000,10212.000
10503.000,10154.000,10205.000
10479.000,10255.000,10010.000
10407.000,10219.000,10135.000
10578.000,10282.000,10075.000
10524.000,10268.000,10165.000
10451.000,10200.000,10102.000
10563.000,10310.000,10076.000
10548.000,10278.000,10186.000
10620.000,10197.000,10174.000
10530.000,10297.000,10302.000
10556.000,10313.000,10085.000
10423.000,10152.000,10123.000
10426.000,10216.000,9998.000
10407.000,10077.000,10014.000
10345.000,10037.000,10026.000
10346.000,10126.000,10010.000
10280.000,10055.000,10062.000
10301.000,10007.000,9949.000
10240.000,10139.000,9907.000
10237.000,9993.000,9928.000
10165.000,9919.000,9863.000
10162.000,9917.000,9874.000
10188.000,9927.000,9850.000
10167.000,10033.000,9789.000
10287.000,9919.000,9724.000
10048.000,9989.000,9826.000
10106.000,9863.000,9764.000
10067.000,9857.000,9768.000
10161.000,9818.000,9809.000
10156.000,9861.000,9830.000
10097.000,9851.000,9747.000
10076.000,9865.000,9799.000
10110.000,9910.000,9807.000
10053.000,9815.000,9687.000
9983.000,9747.000,9738.000
10141.000,9773.000,9756.000
10107.000,9944.000,9753.000
9904.000,9717.000,9595.000
9999.000,9686.000,9618.000
9884.000,9696.000,9648.000
10028.000,9770.000,9671.000
10022.000,9688.000,9579.000
9947.000,9833.000,9565.000
9961.000,9635.000,9631.000
9852.000,9736.000,9648.000
9954.000,9754.000,9574.000
10033.000,9669.000,9512.000
10005.000,9624.000,9582.000
9921.000,9698.000,9684.000
9929.000,9722.000,9539.000
10002.000,9664.000,9600.000
9865.000,9749.000,9644.000
9897.000,9635.000,9583.000
10023.000,9750.000,9606.000
9852.000,9760.000,9638.000
9989.000,9772.000,9726.000
9966.000,9706.000,9641.000
10025.000,9752.000,9753.000
9945.000,9851.000,9702.000
10048.000,9840.000,9706.000
10112.000,9796.000,9654.000
10077.000,9818.000,9671.000
10024.000,9829.000,9703.000
9943.000,9701.000,9720.000
10091.000,9796.000,9718.000
9927.000,9820.000,9728.000
10009.000,9795.000,9737.000
10021.000,9926.000,9566.000
10080.000,9760.000,9712.000
10036.000,9867.000,9678.000
10063.000,9843.000,9723.000
10064.000,9903.000,9779.000
10072.000,9785.000,9764.000
10078.000,9938.000,9711.000
10090.000,9875.000,9830.000
10112.000,9802.000,9747.000
10039.000,9821.000,9797.000
10078.000,9906.000,9796.000
9968.000,9826.000,9705.000
10033.000,9821.000,9688.000
10123.000,9867.000,9801.000
10084.000,9723.000,9635.000
10012.000,9740.000,9678.000
10005.000,9753.000,9616.000
10006.000,9785.000,9590.000
10029.000,9718.000,9724.000
10091.000,9824.000,9707.000
9987.000,9926.000,9681.000
10139.000,9857.000,9747.000
10198.000,10028.000,9726.000
10176.000,9866.000,9707.000
10190.000,9918.000,9676.000
10144.000,9913.000,9741.000
10167.000,9936.000,9802.000
10130.000,9947.000,9748.000
10120.000,9829.000,9769.000
10112.000,9888.000,9669.000
10034.000,9839.000,9778.000
10178.000,9852.000,9648.000
9974.000,9741.000,9565.000
9964.000,9710.000,9647.000
10072.000,9773.000,9609.000
9909.000,9775.000,9487.000
9859.000,9846.000,9579.000
9907.000,9765.000,9466.000
9934.000,9671.000,9608.000
9893.000,9767.000,9601.000
9834.000,9661.000,9500.000
9965.000,9651.000,9555.000
9954.000,9722.000,9562.000
9928.000,9628.000,9492.000
9851.000,9684.000,9512.000
9920.000,9631.000,9697.000
9959.000,9606.000,9532.000
9875.000,9636.000,9564.000
9896.000,9652.000,9478.000
9885.000,9635.000,9561.000
9852.000,9573.000,9545.000
9880.000,9595.000,9543.000
9882.000,9582.000,9523.000
9860.000,9599.000,9496.000
9835.000,9614.000,9494.000
9841.000,9563.000,9472.000
9794.000,9669.000,9523.000
9803.000,9506.000,9400.000
9837.000,9612.000,9487.000
9883.000,9737.000,9519.000
9845.000,9573.000,9577.000
9941.000,9607.000,9466.000
9985.000,9711.000,9537.000
9806.000,9707.000,9502.000
9843.000,9587.000,9543.000
9833.000,9619.000,9507.000
9835.000,9602.000,9341.000
9847.000,9514.000,9455.000
9818.000,9610.000,9541.000
9924.000,9569.000,9497.000
9715.000,9579.000,9484.000
9769.000,9566.000,9474.000
9803.000,9615.000,9461.000
9794.000,9579.000,9534.000
9845.000,9614.000,9383.000
9900.000,9553.000,9491.000
9854.000,9601.000,9525.000
9840.000,9645.000,9508.000
9800.000,9683.000,9526.000
9829.000,9682.000,9610.000
9839.000,9681.000,9518.000
9748.000,9608.000,9489.000
9939.000,9640.000,9523.000
9836.000,9642.000,9492.000
9920.000,9691.000,9609.000
9916.000,9760.000,9505.000
9855.000,9645.000,9485.000
9961.000,9627.000,9549.000
9790.000,9582.000,9545.000
9936.000,9637.000,9575.000
9776.000,9562.000,9551.000
9825.000,9632.000,9427.000
9838.000,9608.000,9510.000
9865.000,9602.000,9459.000
9850.000,9539.000,9529.000
9883.000,9582.000,9542.000
9898.000,9649.000,9497.000
9852.000,9657.000,9555.000
9832.000,9626.000,9540.000
9926.000,9628.000,9486.000
9823.000,9640.000,9437.000
9940.000,9562.000,9523.000
9748.000,9484.000,9474.000
9766.000,9594.000,9461.000
9779.000,9607.000,9432.000
9797.000,9488.000,9483.000
9780.000,9613.000,9437.000
9822.000,9600.000,9455.000
9739.000,9561.000,9374.000
9802.000,9585.000,9382.000
9833.000,9578.000,9410.000
9812.000,9564.000,9467.000
9843.000,9693.000,9412.000
9806.000,9485.000,9557.000
9774.000,9535.000,9476.000
9826.000,9636.000,9379.000
9894.000,9509.000,9565.000
9802.000,9541.000,9486.000
9846.000,9594.000,9373.000
9741.000,9539.000,9407.000
9858.000,9577.000,9498.000
9837.000,9639.000,9524.000
9835.000,9540.000,9530.000
9821.000,9544.000,9373.000
9870.000,9521.000,9470.000
9897.000,9543.000,9526.000
9783.000,9563.000,9456.000
9863.000,9496.000,9505.000
9792.000,9586.000,9543.000
9862.000,9576.000,9509.000
9754.000,9534.000,9485.000
9794.000,9580.000,9365.000
9807.000,9541.000,9364.000
9810.000,9561.000,9543.000
9758.000,9609.000,9366.000
9766.000,9475.000,9389.000
9789.000,9531.000,9474.000
9758.000,9479.000,9426.000
9843.000,9523.000,9434.000
9782.000,9550.000,9475.000
9742.000,9433.000,9414.000
9819.000,9553.000,9419.000
9723.000,9494.000,9342.000
9811.000,9525.000,9493.000
9736.000,9557.000,9368.000
9737.000,9535.000,9418.000
9736.000,9511.000,9435.000
9774.000,9533.000,9569.000
9837.000,9561.000,9546.000
9842.000,9615.000,9581.000
9777.000,9549.000,9492.000
9715.000,9577.000,9447.000
9826.000,9534.000,9491.000
9782.000,9647.000,9521.000
9720.000,9601.000,9524.000
9842.000,9542.000,9637.000
9643.000,9566.000,9587.000
9667.000,9557.000,9562.000
9668.000,9402.000,9527.000
9723.000,9432.000,9436.000
9752.000,9509.000,9427.000
9674.000,9527.000,9446.000
9702.000,9523.000,9331.000
9724.000,9557.000,9450.000
9764.000,9551.000,9443.000
9810.000,9585.000,9320.000
9729.000,9558.000,9386.000
9719.000,9476.000,9393.000
9728.000,9495.000,9303.000
9676.000,9459.000,9447.000
9703.000,9474.000,9406.000
9666.000,9502.000,9351.000
9577.000,9498.000,9379.000
9650.000,9435.000,9316.000
9680.000,9454.000,9434.000
9615.000,9401.000,9315.000
9528.000,9377.000,9351.000
9594.000,9344.000,9303.000
9606.000,9346.000,9297.000
9594.000,9273.000,9193.000
9611.000,9494.000,9353.000
9547.000,9339.000,9339.000
9674.000,9422.000,9340.000
9623.000,9443.000,9330.000
9709.000,9341.000,9301.000
9615.000,9447.000,9441.000
9640.000,9444.000,9334.000
9594.000,9466.000,9336.000
9692.000,9439.000,9251.000
9595.000,9515.000,9408.000
9700.000,9401.000,9384.000
9560.000,9379.000,9298.000
9696.000,9323.000,9302.000
9581.000,9418.000,9285.000
9690.000,9366.000,9267.000
9669.000,9425.000,9247.000
9583.000,9222.000,9274.000
9683.000,9410.000,9224.000
9715.000,9356.000,9304.000
9637.000,9372.000,9289.000
9628.000,9460.000,9274.000
9580.000,9423.000,9274.000
9555.000,9488.000,9241.000
9545.000,9414.000,9246.000
9595.000,9464.000,9330.000
9652.000,9468.000,9328.000
9555.000,9495.000,9371.000
9600.000,9418.000,9349.000
9684.000,9397.000,9248.000
9722.000,9429.000,9405.000
9724.000,9493.000,9357.000
9709.000,9434.000,9414.000
9710.000,9535.000,9432.000
9657.000,9445.000,9308.000
9651.000,9424.000,9353.000
9607.000,9432.000,9279.000
9666.000,9391.000,9428.000
9661.000,9429.000,9421.000
9678.000,9458.000,9442.000
9732.000,9494.000,9306.000
9713.000,9453.000,9411.000
9669.000,9540.000,9450.000
9814.000,9567.000,9396.000
9757.000,9520.000,9392.000
9849.000,9534.000,9312.000
9698.000,9481.000,9352.000
9722.000,9524.000,9500.000
9694.000,9439.000,9431.000
9720.000,9444.000,9328.000
9718.000,9449.000,9344.000
9683.000,9463.000,9303.000
9627.000,9480.000,9364.000
9688.000,9477.000,9392.000
9711.000,9455.000,9340.000
9639.000,9480.000,9277.000
9590.000,9398.000,9314.000
9685.000,9427.000,9234.000
9538.000,9338.000,9290.000
9740.000,9477.000,9257.000
9615.000,9458.000,9282.000
9566.000,9405.000,9309.000
9597.000,9501.000,9364.000
9582.000,9396.000,9275.000
9530.000,9355.000,9327.000
9591.000,9385.000,9341.000
9672.000,9395.000,9381.000
9651.000,9391.000,9214.000
9647.000,9470.000,9280.000
9563.000,9360.000,9244.000
9572.000,9319.000,9226.000
9473.000,9234.000,9171.000
9438.000,9288.000,9237.000
9526.000,9248.000,9264.000
9536.000,9311.000,9178.000
9538.000,9282.000,9240.000
9440.000,9263.000,9169.000
9526.000,9306.000,9140.000
9443.000,9259.000,9033.000
9565.000,9360.000,9248.000
9436.000,9202.000,9187.000
9406.000,9291.000,9172.000
9438.000,9101.000,9132.000
9394.000,9204.000,9184.000
9496.000,9230.000,9131.000
9328.000,9239.000,9179.000
9447.000,9167.000,9118.000
9368.000,9129.000,9035.000
9317.000,9155.000,9025.000
9327.000,9190.000,9058.000
9434.000,9196.000,9141.000
9350.000,9135.000,8989.000
9336.000,9210.000,9056.000
9378.000,9140.000,9083.000
9373.000,9155.000,9092.000
9281.000,9172.000,9102.000
9340.000,9091.000,8973.000
9329.000,9103.000,8973.000
9374.000,9178.000,8992.000
9414.000,9154.000,9062.000
9380.000,9201.000,9147.000
9323.000,9243.000,9007.000
9341.000,9152.000,9177.000
9250.000,9136.000,9105.000
9260.000,9084.000,9011.000
9356.000,9148.000,9090.000
9352.000,9202.000,9143.000
9198.000,9035.000,9085.000
9285.000,9197.000,8997.000
9397.000,9170.000,9096.000
9349.000,9213.000,9159.000
9417.000,9212.000,9069.000
9472.000,9183.000,9091.000
9352.000,9099.000,9070.000
9427.000,9226.000,9128.000
9415.000,9244.000,9154.000
9428.000,9137.000,9006.000
9367.000,9204.000,9033.000
9295.000,9176.000,9160.000
9372.000,9223.000,9084.000
9347.000,9214.000,9084.000
9326.000,9126.000,9192.000
9387.000,9074.000,9063.000
9412.000,9079.000,9089.000
9294.000,9159.000,9010.000
9365.000,9242.000,9226.000
9357.000,9206.000,9184.000
9363.000,9016.000,9171.000
9441.000,9234.000,9164.000
9362.000,9203.000,9126.000
9356.000,9259.000,9131.000
9282.000,9209.000,9091.000
9272.000,9209.000,9099.000
9399.000,9162.000,9162.000
9438.000,9213.000,9171.000
9369.000,9200.000,9062.000
9357.000,9220.000,9181.000
9210.000,9144.000,9012.000
9378.000,9139.000,9117.000
9428.000,9144.000,9167.000
9297.000,9096.000,9118.000
9244.000,9135.000,8959.000
9265.000,9118.000,9111.000
9285.000,9133.000,9103.000
9182.000,9080.000,8997.000
9237.000,9041.000,8912.000
9253.000,9003.000,8924.000
9251.000,9099.000,8973.000
9225.000,8981.000,8874.000
9162.000,8911.000,8870.000
9201.000,9017.000,8887.000
9217.000,8980.000,8946.000
9123.000,8898.000,8950.000
9058.000,8940.000,8866.000
9297.000,8928.000,8922.000
9102.000,8960.000,8899.000
9196.000,8843.000,8911.000
9003.000,8929.000,8832.000
9039.000,8856.000,8852.000
8933.000,8848.000,8830.000
9072.000,8815.000,8853.000
9035.000,8927.000,8799.000
8992.000,8932.000,8764.000
8915.000,8816.000,8863.000
9011.000,8902.000,8786.000
8980.000,8783.000,8850.000
8990.000,8931.000,8761.000
8979.000,8771.000,8885.000
8985.000,8854.000,8792.000
8979.000,8835.000,8837.000
9044.000,8891.000,8805.000
8944.000,8816.000,8717.000
8961.000,8832.000,8687.000
9016.000,8768.000,8783.000
8995.000,8767.000,8728.000
8968.000,8843.000,8802.000
8918.000,8724.000,8774.000
8899.000,8762.000,8724.000
9015.000,8821.000,8749.000
8899.000,8758.000,8783.000
8901.000,8753.000,8769.000
8917.000,8730.000,8692.000
8925.000,8730.000,8758.000
8957.000,8686.000,8687.000
8809.000,8729.000,8728.000
8869.000,8716.000,8637.000
8945.000,8746.000,8759.000
8880.000,8751.000,8743.000
8890.000,8865.000,8780.000
8958.000,8918.000,8807.000
8996.000,8866.000,8923.000
8930.000,8903.000,8878.000
8974.000,8800.000,8841.000
8927.000,8838.000,8843.000
8964.000,8825.000,8913.000
8925.000,8882.000,8810.000
8972.000,8754.000,8745.000
9015.000,8793.000,8727.000
8890.000,8760.000,8710.000
8802.000,8670.000,8740.000
8882.000,8575.000,8602.000
8837.000,8614.000,8605.000
8791.000,8596.000,8580.000
8803.000,8612.000,8553.000
8711.000,8603.000,8518.000
8874.000,8567.000,8417.000
8710.000,8537.000,8491.000
8725.000,8519.000,8507.000
8719.000,8577.000,8498.000
8635.000,8607.000,8589.000
8701.000,8598.000,8418.000
8783.000,8551.000,8508.000
8717.000,8505.000,8539.000
8727.000,8507.000,8468.000
8854.000,8575.000,8464.000
8747.000,8622.000,8634.000
8770.000,8647.000,8482.000
8805.000,8602.000,8519.000
8704.000,8624.000,8521.000
8718.000,8600.000,8646.000
8733.000,8601.000,8600.000
8678.000,8573.000,8450.000
8696.000,8494.000,8534.000
8647.000,8519.000,8497.000
8676.000,8491.000,8486.000
8705.000,8469.000,8423.000
8711.000,8554.000,8444.000
8694.000,8499.000,8439.000
8545.000,8487.000,8417.000
8708.000,8504.000,8411.000
8646.000,8493.000,8348.000
8650.000,8483.000,8266.000
8602.000,8398.000,8320.000
8671.000,8437.000,8328.000
8602.000,8384.000,8316.000
8537.000,8492.000,8262.000
8619.000,8397.000,8421.000
8549.000,8415.000,8328.000
8555.000,8354.000,8311.000
8516.000,8385.000,8314.000
8410.000,8321.000,8223.000
8581.000,8312.000,8164.000
8450.000,8315.000,8244.000
8512.000,8318.000,8255.000
8481.000,8281.000,8212.000
8483.000,8174.000,8247.000
8548.000,8324.000,8280.000
8431.000,8240.000,8194.000
8398.000,8244.000,8232.000
8459.000,8260.000,8169.000
8458.000,8235.000,8273.000
8454.000,8216.000,8240.000
8334.000,8169.000,8203.000
8419.000,8285.000,8205.000
8322.000,8247.000,8273.000
8359.000,8194.000,8187.000
8402.000,8197.000,8152.000
8317.000,8210.000,8117.000
8260.000,8199.000,8261.000
8393.000,8171.000,8228.000
8322.000,8089.000,8139.000
8195.000,8203.000,8055.000
8208.000,8124.000,8137.000
8185.000,8106.000,8048.000
8254.000,8090.000,8015.000
8168.000,8042.000,7944.000
8131.000,8058.000,8024.000
8137.000,8054.000,8011.000
8242.000,8036.000,8003.000
8128.000,8134.000,7960.000
8156.000,8041.000,7881.000
8118.000,8072.000,7974.000
8196.000,8000.000,7967.000
8139.000,7985.000,7904.000
8049.000,8101.000,7949.000
8094.000,7937.000,7933.000
8151.000,7999.000,7933.000
8135.000,7948.000,7932.000
8110.000,7943.000,7901.000
8006.000,7903.000,7790.000
8011.000,7845.000,7830.000
7974.000,7954.000,7913.000
8011.000,7982.000,7933.000
7996.000,7865.000,7843.000
8076.000,7814.000,7891.000
8062.000,7897.000,7892.000
7980.000,7860.000,7924.000
7963.000,7753.000,7802.000
7997.000,7829.000,7843.000
8011.000,7844.000,7806.000
8004.000,7801.000,7735.000
7948.000,7853.000,7811.000
7885.000,7769.000,7744.000
7928.000,7765.000,7738.000
7833.000,7800.000,7737.000
7805.000,7637.000,7672.000
7902.000,7644.000,7646.000
7756.000,7705.000,7634.000
7815.000,7719.000,7759.000
7779.000,7631.000,7712.000
7774.000,7683.000,7667.000
7805.000,7661.000,7684.000
7862.000,7690.000,7715.000
7779.000,7731.000,7758.000
7875.000,7714.000,7656.000
7794.000,7719.000,7676.000
7854.000,7678.000,7653.000
7720.000,7689.000,7630.000
7707.000,7684.000,7696.000
7752.000,7639.000,7670.000
7712.000,7638.000,7539.000
7669.000,7587.000,7630.000
7734.000,7591.000,7523.000
7685.000,7508.000,7530.000
7628.000,7481.000,7491.000
7627.000,7513.000,7461.000
7557.000,7462.000,7488.000
7567.000,7427.000,7362.000
7581.000,7319.000,7353.000
7567.000,7474.000,7426.000
7435.000,7327.000,7297.000
7522.000,7393.000,7359.000
7487.000,7333.000,7247.000
7480.000,7267.000,7218.000
7344.000,7326.000,7247.000
7342.000,7276.000,7160.000
7358.000,7226.000,7184.000
7310.000,7232.000,7046.000
7279.000,7176.000,7098.000
7366.000,7141.000,7142.000
7357.000,7199.000,7082.000
7374.000,7173.000,7141.000
7320.000,7219.000,7067.000
7330.000,7257.000,7201.000
7339.000,7213.000,7129.000
7315.000,7265.000,7161.000
7366.000,7067.000,7134.000
7250.000,7083.000,7065.000
7217.000,7173.000,7119.000
7312.000,7108.000,7088.000
7275.000,7065.000,7055.000
7210.000,7080.000,7007.000
7202.000,7076.000,7031.000
7253.000,7115.000,7030.000
7186.000,7122.000,6995.000
7186.000,7065.000,6932.000
7071.000,7051.000,6971.000
7107.000,6980.000,7000.000
7008.000,6940.000,6917.000
7083.000,6801.000,6953.000
6984.000,6989.000,6836.000
7055.000,6931.000,6854.000
6993.000,6819.000,6848.000
7019.000,6877.000,6856.000
6997.000,6874.000,6834.000
7060.000,6871.000,6851.000
7057.000,6995.000,6822.000
6981.000,6915.000,6919.000
7139.000,6902.000,6824.000
7105.000,6945.000,6920.000
7050.000,6963.000,6864.000
6927.000,6816.000,6874.000
7015.000,6897.000,6853.000
6975.000,6854.000,6816.000
6961.000,6828.000,6868.000
6930.000,6878.000,6822.000
6945.000,6921.000,6803.000
6965.000,6857.000,6758.000
6874.000,6895.000,6734.000
6947.000,6810.000,6735.000
6887.000,6859.000,6694.000
6867.000,6745.000,6760.000
6842.000,6793.000,6676.000
6909.000,6794.000,6759.000
6915.000,6767.000,6737.000
6962.000,6781.000,6732.000
6964.000,6880.000,6732.000
6849.000,6749.000,6811.000
6921.000,6826.000,6846.000
6994.000,6905.000,6746.000
6932.000,6830.000,6838.000
6865.000,6875.000,6890.000
6898.000,6835.000,6850.000
6865.000,6827.000,6880.000
6975.000,6802.000,6827.000
6843.000,6850.000,6887.000
6965.000,6863.000,6867.000
6899.000,6804.000,6798.000
6811.000,6791.000,6885.000
6822.000,6674.000,6821.000
6810.000,6729.000,6805.000
6819.000,6714.000,6783.000
6806.000,6736.000,6760.000
6789.000,6726.000,6723.000
6796.000,6789.000,6758.000
6811.000,6821.000,6823.000
6870.000,6730.000,6773.000
6853.000,6715.000,6754.000
6828.000,6746.000,6786.000
6856.000,6824.000,6766.000
6817.000,6699.000,6663.000
6848.000,6769.000,6746.000
6875.000,6674.000,6743.000
6829.000,6740.000,6721.000
6783.000,6628.000,6687.000
6807.000,6635.000,6679.000
6767.000,6762.000,6680.000
6826.000,6689.000,6701.000
6778.000,6660.000,6649.000
6829.000,6724.000,6716.000
6819.000,6780.000,6689.000
6738.000,6786.000,6682.000
6945.000,6740.000,6747.000
6831.000,6773.000,6705.000
6840.000,6759.000,6782.000
6815.000,6725.000,6777.000
6838.000,6758.000,6759.000
6819.000,6724.000,6647.000
6763.000,6675.000,6694.000
6829.000,6705.000,6648.000
6696.000,6621.000,6597.000
6782.000,6721.000,6728.000
6741.000,6617.000,6669.000
6735.000,6622.000,6613.000
6766.000,6643.000,6612.000
6828.000,6704.000,6626.000
6832.000,6721.000,6700.000
6767.000,6736.000,6756.000
6872.000,6740.000,6725.000
6863.000,6709.000,6710.000
6860.000,6730.000,6670.000
6790.000,6632.000,6653.000
6828.000,6638.000,6755.000
6815.000,6719.000,6677.000
6786.000,6681.000,6596.000
6753.000,6625.000,6611.000
6723.000,6657.000,6579.000
6635.000,6582.000,6598.000
6752.000,6549.000,6576.000
6629.000,6623.000,6655.000
6776.000,6665.000,6604.000
6779.000,6709.000,6656.000
6744.000,6693.000,6712.000
6840.000,6787.000,6620.000
6823.000,6760.000,6758.000
6819.000,6802.000,6669.000
6861.000,6832.000,6693.000
6815.000,6792.000,6705.000
6866.000,6710.000,6774.000
6824.000,6622.000,6678.000
6767.000,6678.000,6635.000
6764.000,6670.000,6656.000
6792.000,6604.000,6592.000
6717.000,6605.000,6551.000
6709.000,6612.000,6570.000
6652.000,6566.000,6580.000
6817.000,6593.000,6603.000
6679.000,6661.000,6618.000
6742.000,6636.000,6621.000
6705.000,6643.000,6596.000
6749.000,6704.000,6691.000
6695.000,6667.000,6752.000
6789.000,6658.000,6706.000
6808.000,6695.000,6768.000
6727.000,6674.000,6679.000
6800.000,6597.000,6683.000
6757.000,6715.000,6691.000
6707.000,6653.000,6700.000
6769.000,6621.000,6523.000
6708.000,6723.000,6644.000
6744.000,6576.000,6571.000
6713.000,6597.000,6689.000
6690.000,6623.000,6608.000
6706.000,6583.000,6546.000
6567.000,6570.000,6565.000
6651.000,6542.000,6606.000
6642.000,6529.000,6596.000
6681.000,6551.000,6643.000
6678.000,6642.000,6662.000
6650.000,6703.000,6687.000
6671.000,6630.000,6722.000
6687.000,6593.000,6698.000
6757.000,6650.000,6665.000
6735.000,6619.000,6703.000
6744.000,6633.000,6700.000
6736.000,6709.000,6679.000
6781.000,6732.000,6686.000
6798.000,6624.000,6768.000
6806.000,6728.000,6680.000
6734.000,6749.000,6689.000
6715.000,6726.000,6628.000
6696.000,6686.000,6638.000
6665.000,6660.000,6639.000
6671.000,6566.000,6655.000
6663.000,6612.000,6512.000
6742.000,6561.000,6658.000
6736.000,6557.000,6662.000
6615.000,6540.000,6595.000
6658.000,6569.000,6565.000
6618.000,6477.000,6531.000
6659.000,6514.000,6484.000
6622.000,6465.000,6548.000
6594.000,6464.000,6497.000
6651.000,6516.000,6526.000
6633.000,6454.000,6582.000
6588.000,6520.000,6493.000
6591.000,6510.000,6606.000
6594.000,6630.000,6587.000
6638.000,6498.000,6590.000
6718.000,6614.000,6528.000
6578.000,6501.000,6616.000
6697.000,6645.000,6567.000
6656.000,6571.000,6544.000
6651.000,6594.000,6532.000
6597.000,6588.000,6538.000
6546.000,6533.000,6576.000
6554.000,6522.000,6604.000
6579.000,6460.000,6558.000
6636.000,6434.000,6434.000
6441.000,6446.000,6392.000
6538.000,6497.000,6505.000
6509.000,6347.000,6494.000
6443.000,6395.000,6391.000
6393.000,6388.000,6349.000
6414.000,6271.000,6279.000
6400.000,6335.000,6277.000
6478.000,6280.000,6326.000
6412.000,6322.000,6347.000
6359.000,6326.000,6310.000
6445.000,6348.000,6343.000
6435.000,6328.000,6273.000
6335.000,6234.000,6300.000
6431.000,6334.000,6255.000
6374.000,6334.000,6236.000
6425.000,6264.000,6244.000
6361.000,6276.000,6303.000
6323.000,6271.000,6298.000
6407.000,6318.000,6287.000
6410.000,6290.000,6234.000
6382.000,6244.000,6279.000
6372.000,6191.000,6238.000
6288.000,6252.000,6237.000
6334.000,6294.000,6256.000
6316.000,6235.000,6281.000
6338.000,6243.000,6223.000
6264.000,6235.000,6243.000
6366.000,6232.000,6150.000
6318.000,6288.000,6200.000
6256.000,6135.000,6146.000
6272.000,6195.000,6147.000
6162.000,6125.000,6048.000
6244.000,6218.000,6142.000
6178.000,6212.000,6100.000
6197.000,6097.000,6049.000
6144.000,6106.000,6186.000
6177.000,6024.000,6075.000
6155.000,6155.000,6095.000
6131.000,5984.000,6008.000
6156.000,6116.000,6035.000
6134.000,6101.000,6070.000
6130.000,6051.000,5962.000
6131.000,6042.000,5992.000
6109.000,5923.000,5985.000
6166.000,6017.000,6004.000
6131.000,5945.000,5879.000
6098.000,6102.000,5926.000
6027.000,5907.000,5873.000
6065.000,5982.000,5975.000
6029.000,5974.000,5991.000
6056.000,6021.000,5969.000
6075.000,5963.000,6062.000
6158.000,6079.000,6042.000
6083.000,6055.000,5951.000
6148.000,6028.000,5974.000
6109.000,5990.000,5976.000
6141.000,6047.000,5985.000
6118.000,6051.000,5966.000
6064.000,6053.000,5997.000
6072.000,5974.000,5917.000
6172.000,6013.000,5962.000
6085.000,6053.000,5971.000
6121.000,5981.000,5938.000
6127.000,6011.000,5964.000
6077.000,5962.000,5911.000
6091.000,6019.000,5966.000
5978.000,5910.000,5959.000
6109.000,5904.000,5866.000
5907.000,5839.000,5880.000
5940.000,5860.000,5859.000
5970.000,5891.000,5944.000
5929.000,5898.000,5895.000
5913.000,5874.000,5873.000
5968.000,5820.000,5762.000
5851.000,5877.000,5811.000
5888.000,5838.000,5813.000
5935.000,5836.000,5740.000
5867.000,5817.000,5770.000
5844.000,5846.000,5729.000
5866.000,5766.000,5773.000
5782.000,5757.000,5761.000
5886.000,5845.000,5774.000
5813.000,5717.000,5676.000
5772.000,5707.000,5672.000
5814.000,5804.000,5762.000
5854.000,5745.000,5742.000
5885.000,5726.000,5749.000
5879.000,5761.000,5816.000
5784.000,5786.000,5709.000
5842.000,5812.000,5827.000
5914.000,5861.000,5861.000
5916.000,5760.000,5779.000
5817.000,5808.000,5776.000
5840.000,5829.000,5726.000
5904.000,5874.000,5787.000
5893.000,5900.000,5827.000
5911.000,5787.000,5817.000
5824.000,5763.000,5849.000
5887.000,5761.000,5770.000
5839.000,5813.000,5819.000
5875.000,5818.000,5851.000
5881.000,5874.000,5789.000
5863.000,5802.000,5808.000
5836.000,5834.000,5850.000
5866.000,5774.000,5790.000
5811.000,5741.000,5820.000
5812.000,5717.000,5802.000
5761.000,5743.000,5813.000
5857.000,5691.000,5756.000
5769.000,5750.000,5746.000
5777.000,5706.000,5684.000
5798.000,5706.000,5674.000
5654.000,5611.000,5698.000
5674.000,5688.000,5692.000
5686.000,5709.000,5749.000
5631.000,5647.000,5682.000
5649.000,5594.000,5643.000
5665.000,5611.000,5534.000
5597.000,5629.000,5646.000
5556.000,5598.000,5583.000
5599.000,5498.000,5570.000
5515.000,5555.000,5488.000
5580.000,5472.000,5525.000
5567.000,5409.000,5478.000
5513.000,5546.000,5552.000
5485.000,5438.000,5488.000
5466.000,5450.000,5466.000
5524.000,5478.000,5490.000
5512.000,5474.000,5494.000
5500.000,5357.000,5340.000
5423.000,5404.000,5408.000
5437.000,5336.000,5381.000
5471.000,5362.000,5319.000
5496.000,5380.000,5391.000
5449.000,5403.000,5363.000
5426.000,5376.000,5314.000
5468.000,5348.000,5347.000
5395.000,5298.000,5303.000
5351.000,5376.000,5346.000
5366.000,5399.000,5277.000
5397.000,5350.000,5343.000
5394.000,5338.000,5284.000
5358.000,5333.000,5264.000
5330.000,5254.000,5200.000
5315.000,5243.000,5242.000
5328.000,5181.000,5237.000
5311.000,5204.000,5217.000
5273.000,5152.000,5168.000
5240.000,5208.000,5151.000
5198.000,5115.000,5143.000
5174.000,5141.000,5131.000
5210.000,5087.000,5106.000
5114.000,5141.000,5147.000
5114.000,5068.000,5015.000
5088.000,5035.000,4990.000
5189.000,4984.000,5094.000
5097.000,5013.000,5028.000
5106.000,5032.000,4951.000
5018.000,4983.000,4901.000
5054.000,4971.000,4940.000
5002.000,4947.000,4953.000
5045.000,4951.000,4894.000
5043.000,4933.000,4912.000
5031.000,4919.000,4965.000
4938.000,4944.000,4925.000
4966.000,4960.000,4858.000
4918.000,4845.000,4840.000
5006.000,4902.000,4851.000
4871.000,4855.000,4856.000
4904.000,4813.000,4790.000
4872.000,4840.000,4844.000
4937.000,4847.000,4765.000
4946.000,4850.000,4826.000
4844.000,4801.000,4824.000
4898.000,4842.000,4818.000
4904.000,4827.000,4820.000
4848.000,4824.000,4723.000
4921.000,4836.000,4744.000
4872.000,4857.000,4779.000
4868.000,4778.000,4822.000
4856.000,4840.000,4816.000
4865.000,4810.000,4777.000
4809.000,4803.000,4814.000
4875.000,4787.000,4821.000
4805.000,4763.000,4723.000
4842.000,4795.000,4740.000
4789.000,4717.000,4737.000
4755.000,4765.000,4792.000
4792.000,4738.000,4766.000
4776.000,4650.000,4696.000
4762.000,4725.000,4727.000
4670.000,4694.000,4703.000
4632.000,4657.000,4692.000
4705.000,4610.000,4719.000
4616.000,4664.000,4700.000
4624.000,4612.000,4591.000
4577.000,4550.000,4611.000
4598.000,4581.000,4597.000
4597.000,4580.000,4615.000
4538.000,4507.000,4580.000
4507.000,4532.000,4576.000
4579.000,4561.000,4548.000
4486.000,4489.000,4521.000
4431.000,4444.000,4492.000
4463.000,4470.000,4520.000
4471.000,4454.000,4482.000
4424.000,4437.000,4523.000
4405.000,4423.000,4508.000
4353.000,4340.000,4470.000
4396.000,4411.000,4451.000
4359.000,4373.000,4468.000
4407.000,4310.000,4479.000
4385.000,4325.000,4467.000
4417.000,4314.000,4539.000
4291.000,4330.000,4432.000
4363.000,4326.000,4470.000
4380.000,4289.000,4394.000
4351.000,4353.000,4455.000
4319.000,4239.000,4501.000
4334.000,4265.000,4383.000
4291.000,4241.000,4402.000
4285.000,4298.000,4350.000
4364.000,4289.000,4380.000
4267.000,4272.000,4330.000
4299.000,4250.000,4326.000
4245.000,4187.000,4291.000
4279.000,4304.000,4319.000
4261.000,4218.000,4284.000
4256.000,4253.000,4267.000
4265.000,4215.000,4260.000
4272.000,4191.000,4238.000
4205.000,4183.000,4200.000
4215.000,4197.000,4211.000
4252.000,4117.000,4207.000
4222.000,4124.000,4177.000
4226.000,4149.000,4168.000
4126.000,4080.000,4184.000
4107.000,4111.000,4068.000
4098.000,4061.000,4135.000
4150.000,4103.000,4099.000
4064.000,4072.000,4079.000
4093.000,4073.000,4152.000
4047.000,4034.000,4112.000
4062.000,4065.000,3966.000
4092.000,4029.000,4046.000
4049.000,3964.000,3989.000
3983.000,4003.000,3985.000
3984.000,3975.000,4008.000
3943.000,3936.000,4043.000
3946.000,3981.000,3970.000
4035.000,3914.000,3983.000
3951.000,3965.000,3927.000
3916.000,3932.000,3945.000
3943.000,3860.000,3944.000
3955.000,3922.000,3947.000
3893.000,3920.000,3980.000
3907.000,3907.000,3890.000
3909.000,3910.000,3895.000
3959.000,3912.000,3913.000
3923.000,3939.000,3942.000
3916.000,3882.000,3923.000
3861.000,3856.000,3917.000
3899.000,3968.000,3913.000
3910.000,3946.000,3967.000
3903.000,3927.000,3836.000
3919.000,3878.000,3917.000
3935.000,3864.000,3901.000
3881.000,3934.000,3903.000
3943.000,3881.000,3916.000
3874.000,3926.000,3892.000
3878.000,3832.000,3923.000
3891.000,3868.000,3855.000
3846.000,3830.000,3862.000
3882.000,3866.000,3883.000
3856.000,3875.000,3875.000
3887.000,3807.000,3850.000
3838.000,3839.000,3880.000
3804.000,3841.000,3877.000
3833.000,3834.000,3866.000
3773.000,3815.000,3804.000
3825.000,3813.000,3854.000
3756.000,3745.000,3835.000
3822.000,3754.000,3820.000
3770.000,3735.000,3777.000
3721.000,3719.000,3754.000
3747.000,3691.000,3761.000
3721.000,3740.000,3762.000
3648.000,3693.000,3690.000
3676.000,3620.000,3719.000
3676.000,3663.000,3702.000
3686.000,3658.000,3639.000
3659.000,3643.000,3653.000
3641.000,3647.000,3675.000
3629.000,3570.000,3644.000
3590.000,3636.000,3640.000
3606.000,3587.000,3685.000
3636.000,3578.000,3646.000
3564.000,3567.000,3638.000
3634.000,3512.000,3559.000
3597.000,3564.000,3634.000
3590.000,3514.000,3569.000
3556.000,3564.000,3591.000
3568.000,3545.000,3572.000
3554.000,3519.000,3559.000
3540.000,3461.000,3545.000
3552.000,3548.000,3574.000
3611.000,3574.000,3588.000
3557.000,3577.000,3550.000
3592.000,3531.000,3594.000
3601.000,3603.000,3588.000
3596.000,3550.000,3637.000
3625.000,3552.000,3595.000
3596.000,3539.000,3586.000
3615.000,3538.000,3603.000
3595.000,3570.000,3593.000
3588.000,3521.000,3554.000
3630.000,3568.000,3528.000
3597.000,3586.000,3588.000
3541.000,3590.000,3580.000
3575.000,3493.000,3552.000
3558.000,3519.000,3509.000
3546.000,3481.000,3457.000
3502.000,3519.000,3535.000
3517.000,3491.000,3496.000
3518.000,3460.000,3508.000
3490.000,3395.000,3511.000
3489.000,3409.000,3485.000
3435.000,3462.000,3426.000
3415.000,3380.000,3431.000
3434.000,3459.000,3435.000
3447.000,3462.000,3448.000
3426.000,3450.000,3425.000
3430.000,3386.000,3432.000
3463.000,3442.000,3445.000
3453.000,3425.000,3431.000
3491.000,3411.000,3478.000
3506.000,3463.000,3468.000
3491.000,3433.000,3464.000
3492.000,3475.000,3457.000
3459.000,3466.000,3437.000
3518.000,3470.000,3526.000
3504.000,3471.000,3503.000
3523.000,3443.000,3468.000
3526.000,3530.000,3454.000
3464.000,3464.000,3480.000
3490.000,3466.000,3459.000
3490.000,3458.000,3465.000
3497.000,3468.000,3469.000
3524.000,3472.000,3455.000
3475.000,3448.000,3413.000
3470.000,3391.000,3485.000
3467.000,3451.000,3406.000
3455.000,3396.000,3435.000
3421.000,3417.000,3437.000
3430.000,3388.000,3413.000
3412.000,3434.000,3387.000
3354.000,3412.000,3328.000
3390.000,3373.000,3384.000
3385.000,3336.000,3329.000
3358.000,3301.000,3330.000
3404.000,3385.000,3339.000
3358.000,3334.000,3347.000
3329.000,3341.000,3301.000
3291.000,3298.000,3308.000
3330.000,3319.000,3309.000
3318.000,3330.000,3287.000
3347.000,3291.000,3246.000
3343.000,3319.000,3294.000
3291.000,3339.000,3303.000
3305.000,3334.000,3299.000
3331.000,3275.000,3315.000
3342.000,3323.000,3305.000
3307.000,3283.000,3310.000
3332.000,3305.000,3350.000
3344.000,3286.000,3312.000
3351.000,3373.000,3340.000
3377.000,3335.000,3347.000
3357.000,3385.000,3347.000
3359.000,3292.000,3362.000
3368.000,3289.000,3301.000
3392.000,3322.000,3318.000
3313.000,3330.000,3298.000
3369.000,3332.000,3277.000
3353.000,3292.000,3276.000
3337.000,3299.000,3303.000
3379.000,3265.000,3273.000
3353.000,3329.000,3290.000
3279.000,3299.000,3267.000
3305.000,3263.000,3270.000
3342.000,3271.000,3266.000
3285.000,3332.000,3245.000
3285.000,3261.000,3265.000
3294.000,3264.000,3199.000
3304.000,3289.000,3201.000
3289.000,3231.000,3205.000
3257.000,3255.000,3216.000
3230.000,3238.000,3195.000
3231.000,3196.000,3178.000
3215.000,3211.000,3200.000
3245.000,3201.000,3180.000
3186.000,3233.000,3169.000
3250.000,3173.000,3200.000
3217.000,3193.000,3174.000
3185.000,3180.000,3194.000
3175.000,3182.000,3091.000
3167.000,3132.000,3105.000
3189.000,3128.000,3156.000
3190.000,3160.000,3080.000
3191.000,3165.000,3125.000
3159.000,3161.000,3138.000
3154.000,3173.000,3156.000
3149.000,3089.000,3106.000
3177.000,3174.000,3087.000
3231.000,3170.000,3128.000
3202.000,3160.000,3126.000
3211.000,3222.000,3124.000
3186.000,3196.000,3141.000
3206.000,3193.000,3148.000
3205.000,3161.000,3210.000
3238.000,3191.000,3139.000
3250.000,3168.000,3227.000
3238.000,3166.000,3191.000
3210.000,3233.000,3183.000
3209.000,3175.000,3198.000
3255.000,3245.000,3149.000
3226.000,3201.000,3214.000
3206.000,3152.000,3154.000
3190.000,3175.000,3155.000
3210.000,3099.000,3176.000
3162.000,3166.000,3132.000
3191.000,3200.000,3154.000
3212.000,3171.000,3139.000
3154.000,3154.000,3139.000
3113.000,3109.000,3123.000
3193.000,3152.000,3120.000
3143.000,3147.000,3108.000
3149.000,3096.000,3129.000
3152.000,3109.000,3070.000
3108.000,3095.000,3040.000
3109.000,3102.000,3063.000
3101.000,3085.000,3038.000
3078.000,3074.000,3115.000
3038.000,3047.000,3058.000
3046.000,3069.000,3055.000
3067.000,3069.000,2999.000
3092.000,3009.000,3040.000
3025.000,3028.000,2971.000
3069.000,3031.000,2993.000
3057.000,2995.000,2973.000
3055.000,3060.000,3007.000
2979.000,3058.000,3073.000
3095.000,3049.000,3067.000
3104.000,3046.000,3024.000
3073.000,3032.000,3067.000
3106.000,3072.000,3035.000
3124.000,3130.000,3049.000
3121.000,3070.000,3065.000
3114.000,3064.000,3070.000
3075.000,3097.000,3063.000
3104.000,3087.000,3070.000
3097.000,3077.000,3049.000
3085.000,3117.000,3065.000
3126.000,3099.000,3024.000
3107.000,3069.000,3071.000
3130.000,3115.000,3079.000
3102.000,3042.000,3083.000
3051.000,3088.000,3055.000
3091.000,3067.000,3076.000
3084.000,3019.000,3007.000
3071.000,3015.000,3057.000
3065.000,3030.000,3031.000
3042.000,3055.000,3027.000
3059.000,3023.000,2980.000
3010.000,2977.000,2994.000
3007.000,3012.000,2999.000
2994.000,2990.000,2983.000
2969.000,2985.000,2956.000
2983.000,2988.000,2951.000
3018.000,2980.000,2954.000
2992.000,2968.000,2958.000
2970.000,2942.000,2944.000
3063.000,2911.000,2935.000
2995.000,2972.000,2976.000
2965.000,2951.000,2929.000
2950.000,2995.000,2932.000
2963.000,2934.000,2952.000
2929.000,3000.000,2908.000
3043.000,2973.000,2944.000
2989.000,2948.000,2979.000
3034.000,2964.000,2939.000
3017.000,3022.000,3020.000
2987.000,3012.000,3012.000
3000.000,3003.000,2979.000
3012.000,3040.000,2959.000
3051.000,2982.000,2968.000
3024.000,3034.000,2964.000
3011.000,3016.000,2988.000
3047.000,2984.000,2997.000
2977.000,2994.000,2997.000
3029.000,2995.000,3004.000
3026.000,2979.000,3021.000
2999.000,2992.000,2953.000
2972.000,2990.000,2987.000
3026.000,2937.000,2941.000
2954.000,2982.000,2960.000
2964.000,2977.000,2943.000
2929.000,2951.000,2881.000
2892.000,2920.000,2905.000
2914.000,2952.000,2903.000
2914.000,2907.000,2873.000
2887.000,2848.000,2879.000
2926.000,2900.000,2912.000
2915.000,2911.000,2904.000
2891.000,2833.000,2864.000
2906.000,2869.000,2832.000
2863.000,2865.000,2840.000
2855.000,2900.000,2784.000
2888.000,2875.000,2787.000
2845.000,2814.000,2829.000
2920.000,2836.000,2806.000
2881.000,2835.000,2811.000
2859.000,2849.000,2837.000
2874.000,2878.000,2858.000
2881.000,2877.000,2843.000
2865.000,2860.000,2855.000
2900.000,2876.000,2842.000
2916.000,2848.000,2839.000
2864.000,2885.000,2828.000
2865.000,2852.000,2835.000
2903.000,2894.000,2846.000
2897.000,2876.000,2830.000
2860.000,2861.000,2849.000
2884.000,2875.000,2818.000
2894.000,2883.000,2837.000
2847.000,2853.000,2850.000
2866.000,2821.000,2804.000
2898.000,2854.000,2807.000
2876.000,2856.000,2834.000
2879.000,2810.000,2851.000
2857.000,2821.000,2784.000
2822.000,2904.000,2772.000
2847.000,2793.000,2794.000
2844.000,2824.000,2752.000
2813.000,2806.000,2785.000
2823.000,2798.000,2775.000
2773.000,2833.000,2759.000
2810.000,2781.000,2738.000
2769.000,2767.000,2711.000
2768.000,2736.000,2694.000
2776.000,2753.000,2727.000
2754.000,2735.000,2732.000
2743.000,2716.000,2716.000
2735.000,2644.000,2671.000
2741.000,2686.000,2687.000
2724.000,2691.000,2678.000
2713.000,2661.000,2688.000
2678.000,2688.000,2629.000
2703.000,2663.000,2644.000
2674.000,2647.000,2611.000
2697.000,2660.000,2639.000
2701.000,2679.000,2630.000
2654.000,2649.000,2632.000
2621.000,2639.000,2614.000
2639.000,2663.000,2656.000
2647.000,2653.000,2626.000
2688.000,2632.000,2641.000
2657.000,2625.000,2651.000
2746.000,2619.000,2612.000
2677.000,2602.000,2647.000
2603.000,2653.000,2618.000
2656.000,2620.000,2652.000
2653.000,2639.000,2641.000
2672.000,2725.000,2581.000
2669.000,2614.000,2610.000
2656.000,2670.000,2640.000
2660.000,2614.000,2624.000
2640.000,2650.000,2620.000
2640.000,2654.000,2630.000
2696.000,2617.000,2611.000
2639.000,2597.000,2588.000
2638.000,2613.000,2576.000
2635.000,2581.000,2629.000
2623.000,2610.000,2551.000
2677.000,2597.000,2550.000
2611.000,2596.000,2580.000
2594.000,2626.000,2580.000
2624.000,2605.000,2579.000
2579.000,2564.000,2571.000
2622.000,2572.000,2556.000
2558.000,2569.000,2575.000
2535.000,2536.000,2495.000
2545.000,2536.000,2508.000
2534.000,2543.000,2477.000
2571.000,2535.000,2524.000
2545.000,2502.000,2485.000
2556.000,2529.000,2434.000
2511.000,2472.000,2475.000
2524.000,2493.000,2484.000
2472.000,2477.000,2459.000
2484.000,2460.000,2476.000
2473.000,2425.000,2427.000
2429.000,2460.000,2428.000
2486.000,2410.000,2404.000
2465.000,2459.000,2429.000
2475.000,2446.000,2408.000
2459.000,2406.000,2430.000
2411.000,2405.000,2397.000
2421.000,2423.000,2385.000
2401.000,2401.000,2408.000
2437.000,2389.000,2409.000
2439.000,2428.000,2415.000
2409.000,2434.000,2438.000
2445.000,2428.000,2383.000
2443.000,2391.000,2410.000
2441.000,2431.000,2427.000
2441.000,2404.000,2416.000
2444.000,2428.000,2421.000
2423.000,2428.000,2392.000
2477.000,2404.000,2382.000
2411.000,2414.000,2429.000
2466.000,2433.000,2422.000
2432.000,2411.000,2401.000
2385.000,2427.000,2401.000
2431.000,2379.000,2426.000
2418.000,2388.000,2355.000
2433.000,2392.000,2383.000
2391.000,2398.000,2408.000
2411.000,2362.000,2348.000
2410.000,2378.000,2350.000
2376.000,2357.000,2368.000
2369.000,2366.000,2353.000
2381.000,2379.000,2340.000
2386.000,2330.000,2346.000
2368.000,2360.000,2372.000
2347.000,2355.000,2345.000
2334.000,2323.000,2308.000
2346.000,2291.000,2322.000
2349.000,2319.000,2321.000
2344.000,2279.000,2261.000
2302.000,2288.000,2287.000
2299.000,2294.000,2275.000
2301.000,2307.000,2285.000
2306.000,2240.000,2251.000
2239.000,2210.000,2264.000
2241.000,2231.000,2260.000
2257.000,2250.000,2263.000
2257.000,2242.000,2231.000
2199.000,2233.000,2210.000
2225.000,2250.000,2208.000
2231.000,2214.000,2216.000
2220.000,2212.000,2196.000
2252.000,2236.000,2201.000
2169.000,2192.000,2191.000
2191.000,2191.000,2214.000
2202.000,2218.000,2189.000
2175.000,2175.000,2188.000
2203.000,2224.000,2166.000
2163.000,2189.000,2191.000
2195.000,2179.000,2191.000
2182.000,2176.000,2173.000
2171.000,2186.000,2161.000
2165.000,2169.000,2161.000
2198.000,2168.000,2156.000
2167.000,2178.000,2197.000
2209.000,2217.000,2179.000
2200.000,2220.000,2152.000
2208.000,2177.000,2153.000
2195.000,2178.000,2161.000
2188.000,2189.000,2157.000
2173.000,2183.000,2173.000
2170.000,2156.000,2147.000
2167.000,2135.000,2161.000
2195.000,2167.000,2119.000
2153.000,2163.000,2127.000
2161.000,2155.000,2151.000
2162.000,2174.000,2154.000
2154.000,2103.000,2107.000
2141.000,2156.000,2106.000
2140.000,2108.000,2123.000
2151.000,2126.000,2103.000
2142.000,2119.000,2111.000
2107.000,2090.000,2061.000
2100.000,2059.000,2087.000
2130.000,2115.000,2081.000
2100.000,2063.000,2056.000
2098.000,2075.000,2076.000
2100.000,2023.000,2043.000
2096.000,2066.000,2039.000
2039.000,2040.000,2052.000
2036.000,2061.000,2047.000
2034.000,2063.000,2055.000
2036.000,1997.000,2013.000
2029.000,2041.000,2010.000
1992.000,2026.000,1988.000
2042.000,1981.000,1954.000
1999.000,1987.000,1990.000
2016.000,1993.000,1986.000
1986.000,1981.000,1970.000
1981.000,1997.000,1955.000
1990.000,1991.000,1961.000
1997.000,1969.000,1947.000
1976.000,1962.000,2001.000
1974.000,1968.000,1990.000
1981.000,1951.000,1969.000
1940.000,1947.000,1954.000
1952.000,1961.000,1945.000
1961.000,1980.000,1930.000
1953.000,1946.000,1945.000
1968.000,1922.000,1955.000
1946.000,1978.000,1959.000
1955.000,1959.000,1952.000
1960.000,1960.000,1938.000
1950.000,1943.000,1907.000
1963.000,1945.000,1910.000
1957.000,1934.000,1938.000
1948.000,1930.000,1930.000
1938.000,1948.000,1940.000
1930.000,1931.000,1955.000
1930.000,1920.000,1915.000
1906.000,1927.000,1902.000
1917.000,1914.000,1901.000
1922.000,1931.000,1878.000
1897.000,1898.000,1885.000
1889.000,1882.000,1880.000
1885.000,1897.000,1869.000
1901.000,1887.000,1890.000
1897.000,1880.000,1874.000
1870.000,1866.000,1865.000
1863.000,1858.000,1861.000
1862.000,1863.000,1848.000
1862.000,1875.000,1874.000
1871.000,1845.000,1833.000
1830.000,1842.000,1823.000
1818.000,1821.000,1823.000
1857.000,1830.000,1838.000
1827.000,1813.000,1805.000
1838.000,1803.000,1797.000
1811.000,1785.000,1779.000
